File: ensaios_Ciclicos/sem_TC/entrada/_1.txt
Time (s)	Load (N)	Displacement (mm)
0	0	-0,021
10,761	-3	-0,766
21,489	-2,5	-0,784
32,216	-1,5	-0,653
43,105	-11	-1,642
53,839	-13	-1,838
64,578	-20	-2,486
75,318	-19,5	-2,473
86,099	-21,5	-2,686
96,922	-27,5	-3,268
107,698	-28	-3,275
118,473	-31,5	-3,418
129,23	-32	-3,435
139,964	-29,5	-3,388
150,817	-33	-3,488
162,067	-23,5	-2,49
172,896	-16	-1,86
184,025	-0,5	-0,267
195,131	3,5	-0,001
206,056	3	-0,353
216,999	-2	-0,831
228,459	-28	-3,37
239,564	-32	-3,499
250,525	-28,5	-2,849
261,697	-5,5	-0,994
272,838	3,5	-0,006
284,028	-5	-1,032
294,983	-14	-2,216
305,74	-13,5	-2,173
316,504	-14	-2,248
327,255	-13,5	-2,301
338,025	-21	-2,871
348,824	-27,5	-3,396
359,575	-28	-3,421
370,333	-28,5	-3,451
381,084	-29,5	-3,469
391,871	-30,5	-3,48
402,641	-30	-3,483
413,404	-29,5	-3,473
424,174	-29,5	-3,449
434,961	-29,5	-3,47
445,724	-29,5	-3,479
456,494	-30	-3,479
467,251	-30	-3,497
478,069	-30	-3,498
488,826	-30	-3,497
499,589	-30	-3,498
510,359	-30	-3,499
521,14	-29,5	-3,181
531,909	-23,5	-2,75
542,697	-19	-2,292
553,496	-11,5	-1,718
564,266	-10	-1,618
575,047	-5	-1,047
585,828	-0,5	-0,451
596,598	2,5	-0,079
607,385	4	-0,006
618,154	4	0
628,954	2,5	-0,492
639,747	-4,5	-1,356
650,589	-7,5	-1,748
661,466	-15	-2,487
672,229	-18	-3,006
683,023	-17,5	-3,382
693,798	-22	-3,278
704,586	-18,5	-2,835
715,379	-22,5	-3,158
726,19	-21,5	-3,123
736,99	-22	-3,192
747,789	-23,5	-3,296
758,6	-27,5	-3,47
769,394	-28,5	-3,481
780,175	-28	-3,46
790,951	-28	-3,47
801,726	-27,5	-3,461
812,507	-27,5	-3,458
823,289	-21	-3,128
834,058	-16	-2,745
844,84	-12	-2,373
855,615	-15,5	-2,69
866,39	-12	-2,315
877,16	-10,5	-2,204
887,923	-9,5	-2,036
898,704	-9	-1,972
909,462	-6	-1,635
920,231	-5,5	-1,533
931,001	-3,5	-1,129
941,767	4	-0,268
952,521	4	-0,002
963,339	4	-0,029
974,108	3	-0,064
984,878	0,5	-0,289
995,659	-1	-0,638
1006,434	-4,5	-1,054
1017,216	-10,5	-1,834
1027,991	-15,5	-2,22
1038,772	-21	-2,655
1049,542	-27,5	-3,201
1060,329	-28	-3,499
1071,111	-27,5	-3,496
1081,886	-27,5	-3,493
1092,679	-27,5	-3,491
1103,461	-27	-3,48
1114,23	-26,5	-3,45
1124,994	-16,5	-2,768
1135,745	-7,5	-1,901
1146,526	-5	-1,423
1157,296	-3	-1,083
1168,083	2,5	-0,502
1178,87	4	-0,101
1189,646	4	-0,001
1200,427	4	-0,004
1211,197	4	-0,022
1221,978	2	-0,142
1232,747	-1,5	-0,772
1243,535	-3	-0,938
1254,316	-5	-1,224
1265,091	-11	-1,849
1275,861	-12	-1,998
1286,636	-12,5	-1,968
1297,4	-15	-2,306
1308,179	-19	-2,593
1318,944	-27	-3,232
1329,702	-27	-3,499
1340,471	-27	-3,495
1351,259	-27	-3,493
1362,028	-25,5	-3,459
1372,809	-25	-3,45
1383,585	-21,5	-3,318
1394,354	-19,5	-3,137
1405,13	-17	-3,008
1415,923	-14,5	-2,75
1426,686	-8,5	-2,124
1437,456	-5,5	-1,646
1448,243	-4,5	-1,512
1459,024	-4	-1,432
1469,806	-2	-0,924
1480,563	4,5	-0,287
1491,357	4,5	0
1502,114	4,5	-0,002
1512,895	4,5	-0,003
1523,671	4,5	-0,006
1534,458	4,5	-0,008
1545,228	4,5	-0,017
1555,997	3,5	-0,03
1566,814	4	-0,028
1577,584	3,5	-0,054
1588,359	4	-0,046
1599,134	4	-0,043
1609,906	3,5	-0,058
1620,667	2	-0,141
1631,443	1,5	-0,162
1642,224	3	-0,08
1652,987	1	-0,213
1663,769	2,5	-0,108
1674,556	2	-0,158
1685,332	3	-0,088
1696,107	3,5	-0,064
1706,882	4	-0,042
1717,658	4	-0,031
1728,427	3	-0,083
1739,196	1,5	-0,178
1749,96	0	-0,365
1760,729	-1,5	-0,76
1771,481	-5	-1,344
1782,262	-7	-1,598
1793,037	-10,5	-1,983
1803,807	-15	-2,456
1814,57	-18,5	-2,678
1825,345	-24	-3,16
1836,121	-25	-3,388
1846,902	-25	-3,499
1857,666	-25	-3,496
1868,435	-24	-3,465
1879,21	-19	-3,286
1889,986	-11	-2,538
1900,755	-4,5	-1,692
1911,531	-1,5	-0,971
1922,3	4,5	-0,146
1933,075	4,5	-0,002
1943,851	4,5	-0,02
1954,62	3,5	-0,1
1965,39	0	-0,514
1976,165	-1	-0,905
1986,946	-2,5	-1,17
1997,722	-6	-1,783
2008,503	-9	-2,127
2019,272	-15	-2,792
2030,054	-18	-2,989
2040,829	-21	-3,425
2051,611	-20	-3,499
2062,38	-19,5	-3,497
2073,167	-19	-3,494
2083,937	-18	-3,472
2094,712	-16,5	-3,444
2105,487	-10	-2,977
2116,263	-7,5	-2,677
2127,038	-4,5	-2,033
2137,814	-3	-1,552
2148,577	0	-0,787
2159,352	2	-0,54
2170,122	4,5	-0,001
2180,879	4,5	-0,001
2191,643	4,5	-0,004
2202,406	4,5	-0,011
2213,169	4,5	-0,009
2223,939	4,5	-0,007
2234,708	4,5	-0,003
2245,472	4,5	-0,005
2256,235	4,5	-0,003
2267,004	4,5	-0,003
2277,78	4,5	-0,001
2288,543	4,5	0
2299,318	4,5	-0,015
2310,1	4,5	0
2320,881	4,5	-0,047
2331,669	4,5	-0,198
2342,438	4,5	-0,13
2353,201	4,5	-0,003
2363,983	4,5	-0,069
2374,752	4,5	-0,001
2385,521	4,5	-0,002
2396,297	4,5	-0,001
2407,066	4,5	-0,004
2417,836	4,5	-0,005
2428,605	4,5	-0,002
2439,374	4,5	-0,002
2450,144	4,5	-0,002
2460,913	4,5	-0,005
2471,677	4,5	-0,004
2482,452	4,5	-0,002
2493,221	4,5	-0,001
2503,991	4,5	-0,119
2514,76	0,5	-0,67
2525,53	0	-0,936
2536,299	-1	-1,27
2547,08	-2	-1,702
2557,862	-3	-2,192
2568,631	-4	-2,586
2579,412	-5,5	-3,096
2590,2	-10,5	-3,448
2600,975	-11,5	-3,491
2611,745	-11,5	-3,494
2622,52	-11,5	-3,498
2633,289	-11,5	-3,499
2644,053	-11	-3,413
2654,828	-8,5	-3,032
2665,592	-6	-2,956
2676,367	-3	-2,544
2687,136	-2	-2,359
2697,912	-1	-2,126
2708,681	0	-1,786
2719,474	-0,5	-2,018
2730,244	0,5	-1,289
2741,013	1	-0,923
2751,783	1,5	-0,272
2762,552	4	-0,037
2773,321	4,5	-0,005
2784,097	4,5	-0,032
2794,872	3	-0,44
2805,642	0	-0,959
2816,423	-1	-1,377
2827,198	-1	-1,731
2837,968	-1,5	-1,894
2848,737	-3	-2,781
2859,5	-4	-2,905
2870,27	-5,5	-3,299
2881,033	-7,5	-3,398
2891,797	-10	-3,492
2902,572	-10,5	-3,498
2913,347	-10	-3,488
2924,105	-6,5	-2,954
2934,874	-3,5	-2,741
2945,649	-1,5	-2,28
2956,413	0	-1,891
2967,188	0,5	-1,255
2977,958	1	-0,74
2988,727	2,5	-0,142
2999,502	4	-0,016
3010,272	4,5	-0,001
3021,047	4	-0,085
3031,823	0	-0,866
3042,592	-0,5	-1,354
3053,373	-1,5	-1,897
3064,155	-2,5	-2,499
3074,93	-3	-2,64
3085,706	-3	-2,808
3096,475	-4,5	-3,096
3107,256	-7	-3,404
3118,032	-9,5	-3,486
3128,801	-10	-3,497
3139,57	-10	-3,499
3150,346	-6,5	-3,047
3161,121	-3	-2,698
3171,897	-2	-2,473
3182,672	-0,5	-2,123
3193,441	0	-1,758
3204,223	0	-1,49
3214,992	0	-1,581
3225,773	0	-1,73
3232,955	4	-0,001