File: ensaios_Ciclicos/sem_TC/entrada/_4.txt
Time (s)	Load (N)	Displacement (mm)
0	0	-0,053
10,559	1,5	-0,008
21,046	-2	-0,266
31,546	-4,5	-0,533
42,057	-8,5	-0,884
52,544	-13	-1,415
63,05	-17	-1,737
73,561	-19,5	-2,038
84,079	-22	-2,299
94,59	-28,5	-2,829
105,101	-33,5	-3,212
115,613	-34	-3,499
126,142	-34	-3,498
136,666	-33,5	-3,495
147,189	-33	-3,495
157,719	-33	-3,494
168,242	-32,5	-3,49
178,777	-32,5	-3,486
189,307	-31,5	-3,465
199,836	-30	-3,416
210,353	-29	-3,406
220,901	-32	-3,481
231,436	-32	-3,494
242,002	-32	-3,498
252,538	-32	-3,499
263,073	-31,5	-3,499
273,62	-31,5	-3,498
284,131	-31,5	-3,498
294,655	-31,5	-3,497
305,208	-31,5	-3,498
315,755	-31,5	-3,499
326,291	-31,5	-3,499
336,838	-31	-3,498
347,398	-31,5	-3,496
357,933	-31	-3,492
368,474	-30	-3,473
379,052	-29,5	-3,46
389,575	-27,5	-3,409
400,111	-27	-3,388
410,634	-22,5	-3,142
421,163	-22,5	-3,132
431,705	-22,5	-3,13
442,258	-21,5	-2,975
452,854	-21,5	-2,981
463,407	-19,5	-2,9
473,942	-15	-2,487
484,502	-15	-2,476
495,037	-14,5	-2,38
505,579	-12,5	-2,228
516,138	-15	-2,475
526,685	-15,5	-2,561
537,233	-14	-2,355
547,762	-12	-2,164
558,286	-10	-2,035
568,815	-7,5	-1,689
579,356	-8,5	-1,82
589,886	-8	-1,665
600,427	-3	-0,887
610,975	-1,5	-0,793
621,516	3,5	0
632,057	3,5	-0,016
642,587	2,5	-0,054
653,128	1,5	-0,118
663,676	1	-0,126
674,227	2	-0,086
684,752	3,5	-0,011
695,288	3,5	-0,005
705,817	3,5	-0,012
716,347	2	-0,412
726,876	2,5	-0,487
737,405	-3,5	-1,026
747,941	-6	-1,504
758,47	-9	-1,941
769,012	-9,5	-2,006
779,529	-10,5	-2,181
790,064	-6,5	-1,655
800,6	-3,5	-1,085
811,129	0	-0,699
821,665	2	-0,495
832,194	2	-0,438
842,753	2	-0,461
853,295	1,5	-0,506
863,842	3,5	-0,299
874,377	3	-0,368
884,901	3,5	0
895,442	3,5	-0,314
905,984	-1,5	-0,898
916,525	-6	-1,56
927,06	-11	-2,282
937,596	-15	-2,653
948,137	-17,5	-2,874
958,673	-25	-3,402
969,202	-28	-3,489
979,737	-28	-3,494
990,285	-28	-3,495
1000,82	-28	-3,499
1011,386	-28	-3,499
1021,915	-28	-3,311
1032,45	-26	-3,026
1043,004	-21	-2,669
1053,611	-15	-2,118
1064,159	-18	-2,451
1074,7	-17	-2,38
1085,223	-14	-2,122
1095,765	-20	-2,598
1106,288	-19,5	-2,563
1116,812	-21	-2,74
1127,353	-16,5	-2,376
1137,882	-11,5	-1,88
1148,412	-6	-1,354
1158,959	-1	-0,55
1169,489	3	-0,074
1180,018	3,5	-0,01
1190,548	3,5	-0,002
1201,083	3,5	-0,003
1211,612	3,5	-0,001
1222,154	3,5	-0,001
1232,689	3,5	-0,002
1243,218	3,5	-0,002
1253,76	3,5	-0,002
1264,301	3,5	-0,003
1274,849	3,5	-0,003
1285,39	3,5	-0,005
1295,92	3	-0,028
1306,455	0	-0,208
1317,002	0	-0,256
1327,544	-0,5	-0,44
1338,073	-4,5	-1,098
1348,602	-9,5	-1,72
1359,132	-15,5	-2,26
1369,673	-24,5	-2,981
1380,203	-26,5	-3,498
1390,738	-26,5	-3,486
1401,273	-25,5	-3,461
1411,803	-24	-3,403
1422,344	-21,5	-3,334
1432,874	-18	-2,985
1443,421	-16,5	-2,879
1453,974	-12	-2,48
1464,529	-7,5	-2,005
1475,057	-4	-1,4
1485,593	2,5	-0,526
1496,14	2	-0,516
1506,675	3,5	-0,226
1517,229	3,5	-0,192
1527,764	4	-0,001
1538,282	3,5	-0,001
1548,811	4	-0,001
1559,352	3,5	-0,001
1569,888	3,5	-0,001
1580,423	3,5	-0,032
1590,953	3,5	0
1601,488	3,5	0
1612,017	3,5	-0,083
1622,553	2,5	-0,437
1633,07	2,5	-0,442
1643,6	3	-0,32
1654,195	3	-0,315
1664,718	2,5	-0,356
1675,254	3,5	-0,181
1685,783	3,5	-0,001
1696,307	3,5	-0,001
1706,836	3,5	-0,001
1717,359	3,5	-0,002
1727,889	4	-0,003
1738,406	3,5	-0,011
1748,936	3,5	-0,042
1759,465	3	-0,058
1769,988	3	-0,073
1780,518	2	-0,089
1791,047	1,5	-0,093
1801,577	0	-0,403
1812,1	-2,5	-0,91
1822,629	-9	-1,845
1833,159	-9,5	-1,834
1843,682	-9	-1,745
1854,206	-4,5	-1,238
1864,735	-3	-1,003
1875,264	-0,5	-0,555
1885,8	-3,5	-1,087
1896,329	-13	-2,255
1906,847	-22,5	-3,024
1917,37	-24	-3,12
1927,899	-24,5	-3,196
1938,435	-20	-2,822
1948,958	-14,5	-2,308
1959,487	-6	-1,532
1970,017	-3	-1,004
1980,546	-0,5	-0,568
1991,076	0,5	-0,187
2001,605	3	-0,054
2012,129	3,5	-0,012
2022,658	4	-0,005
2033,187	4	-0,001
2043,717	3,5	-0,272
2054,24	1	-0,574
2064,769	-1	-0,905
2075,305	0	-0,777
2085,84	-1,5	-1,03
2096,37	-5	-1,766
2106,899	-6	-2,13
2117,422	-8	-2,568
2127,946	-12,5	-3,266
2138,487	-18	-3,478
2149,023	-17	-3,497
2159,552	-16	-3,183
2170,076	-9	-2,56
2180,605	-3	-1,784
2191,128	0	-1,09
2201,658	0	-0,85
2212,187	1,5	-0,375
2222,71	3,5	-0,089
2233,234	4	-0,019
2243,757	4	-0,002
2254,335	3,5	-0,29
2264,852	-0,5	-0,966
2275,388	-1,5	-1,348
2285,923	-3	-1,821
2296,464	-5,5	-2,461
2306,988	-6	-2,714
2317,523	-8,5	-3,117
2328,052	-12	-3,402
2338,588	-14	-3,477
2349,123	-14,5	-3,492
2359,647	-14,5	-3,497
2370,194	-14	-3,499
2380,729	-14	-3,248
2391,259	-9,5	-2,872
2401,794	-5,5	-2,5
2412,318	-5	-2,36
2422,853	-3	-2,1
2433,382	-2,5	-1,971
2443,918	-1,5	-1,689
2454,459	-2	-1,869
2464,989	-0,5	-1,426
2475,53	0	-0,966
2486,059	0	-0,784
2496,595	2	-0,189
2507,13	3,5	-0,058
2517,66	3,5	-0,028
2528,189	4	-0,011
2538,706	4	-0,007
2549,236	4	-0,002
2559,771	4	0
2570,307	4	-0,197
2580,836	3,5	-0,226
2591,372	3,5	-0,328
2601,895	2,5	-0,496
2612,43	0,5	-0,757
2622,96	0	-0,843
2633,501	-0,5	-1,09
2644,042	-1	-1,332
2654,56	-1	-1,417
2665,089	-2	-1,796
2675,631	-2,5	-2,127
2686,16	-3	-2,368
2696,689	-4,5	-2,805
2707,219	-6	-3,12
2717,748	-5,5	-3,131
2728,278	-6,5	-3,19
2738,801	-6,5	-3,242
2749,324	-7,5	-3,326
2759,848	-9,5	-3,403
2770,377	-8,5	-3,402
2780,901	-7,5	-3,374
2791,43	-9	-3,415
2801,995	-10,5	-3,47
2812,525	-10,5	-3,48
2823,06	-10,5	-3,482
2833,578	-10,5	-3,49
2844,113	-10,5	-3,492
2854,702	-10,5	-3,498
2865,232	-10,5	-3,498
2875,755	-10,5	-3,498
2886,297	-10,5	-3,498
2896,826	-10,5	-3,498
2907,367	-10,5	-3,499
2917,897	-10,5	-3,5
2928,432	-10,5	-3,499
2938,968	-10,5	-3,5
2949,497	-10,5	-3,449
2960,026	-10	-3,499
2970,556	-10	-3,496
2981,085	-10	-3,5
2991,609	-10	-3,499
3002,139	-10	-3,499
3012,691	-10	-3,499
3023,209	-10	-3,499
3033,756	-10	-3,499
3044,285	-10	-3,498
3054,821	-9,5	-3,499
3065,356	-10	-3,498
3075,898	-10	-3,498
3086,439	-10	-3,497
3096,974	-10	-3,494
3107,516	-10	-3,496
3118,045	-9,5	-3,497
3128,569	-9,5	-3,498
3139,11	-9,5	-3,498
3149,633	-9,5	-3,499
3157,019	3,5	-0,001