File: ensaios_Ciclicos/sem_TC/entrada/_5.txt
Time (s)	Load (N)	Displacement (mm)
0	0	-0,035
10,606	1,5	-0,01
21,124	-18,5	-1,656
31,635	-35,5	-3,455
42,152	-12	-1,674
52,753	2,5	-0,012
63,271	2,5	-0,013
73,776	-16,5	-1,715
84,288	-25,5	-2,538
94,811	-29,5	-2,811
105,322	-34,5	-3,399
115,84	-34,5	-3,499
126,345	-34,5	-3,499
136,845	-34	-3,498
147,393	-34,5	-3,499
157,933	-34	-3,498
168,487	-33,5	-3,364
179,028	-33,5	-3,197
189,558	-28	-2,864
200,099	-22,5	-2,405
210,646	-21	-2,234
221,176	-19	-2,116
231,717	-19,5	-2,145
242,246	-16,5	-1,852
252,8	-18,5	-2,06
263,347	-15	-1,852
273,919	-14,5	-1,759
284,478	-11,5	-1,47
295,049	-8	-1,232
305,603	-8,5	-1,334
316,174	-7,5	-1,208
326,728	-9,5	-1,39
337,317	-8	-1,083
347,871	-12	-1,588
358,454	-12	-1,621
368,995	-10	-1,493
379,573	-10,5	-1,505
390,126	-9	-1,343
400,703	-6	-1,105
411,275	-4,5	-0,985
421,84	-1,5	-0,574
432,412	-3	-0,735
442,959	-1,5	-0,543
453,512	-0,5	-0,47
464,06	-3	-0,73
474,619	-4,5	-0,935
485,167	-4	-0,855
495,732	-3	-0,769
506,291	-3	-0,794
516,869	-3,5	-0,861
527,428	-2,5	-0,748
537,976	-2	-0,688
548,529	-0,5	-0,482
559,094	0	-0,222
569,642	1,5	-0,112
580,207	2,5	-0,083
590,761	1,5	-0,091
601,326	3,5	-0,043
611,867	3	-0,052
622,427	3,5	-0,046
632,974	2,5	-0,064
643,516	1,5	-0,108
654,117	3	-0,044
664,67	3,5	-0,036
675,218	3	-0,059
685,771	2,5	-0,062
696,331	3	-0,052
706,884	3,5	-0,024
717,419	3	-0,043
727,979	3,5	-0,04
738,526	3	-0,04
749,074	3,5	-0,025
759,615	3,5	-0,035
770,168	3	-0,042
780,716	3,5	-0,046
791,263	3	-0,041
801,793	3	-0,054
812,34	2,5	-0,07
822,893	0	-0,273
833,441	-1	-0,487
843,994	-3	-0,798
854,53	-4	-0,989
865,065	-5	-1,096
875,594	-7,5	-1,388
886,148	-8,5	-1,585
896,689	-11,5	-1,854
907,236	-15,5	-2,178
917,778	-23,5	-2,834
928,319	-28,5	-3,338
938,873	-28,5	-3,498
949,42	-28,5	-3,485
959,962	-22	-3,3
970,509	-14,5	-2,526
981,062	-14,5	-2,494
991,604	-14	-2,5
1002,157	-16	-2,639
1012,728	-13	-2,398
1023,282	-10,5	-2,157
1033,829	-11,5	-2,254
1044,383	-13	-2,408
1054,93	-10	-2,201
1065,477	-13	-2,456
1076,019	-14,5	-2,576
1086,548	-14,5	-2,626
1097,084	-17	-2,863
1107,631	-19,5	-3,013
1118,16	-18	-2,956
1128,708	-16,5	-2,862
1139,243	-13	-2,509
1149,785	-12,5	-2,475
1160,326	-12	-2,334
1170,873	-12,5	-2,43
1181,415	-10,5	-2,262
1191,962	-6	-1,747
1202,498	-6	-1,687
1213,045	-8	-1,901
1223,592	-8	-1,971
1234,134	-6	-1,714
1244,675	-4	-1,32
1255,289	-2,5	-0,962
1265,824	1	-0,547
1276,371	4	-0,059
1286,901	4	-0,002
1297,442	4	-0,004
1307,978	4	-0,015
1318,525	3,5	-0,038
1329,078	2,5	-0,111
1339,62	0,5	-0,24
1350,149	0	-0,324
1360,691	-1,5	-0,604
1371,232	-1,5	-0,669
1381,779	-2,5	-0,764
1392,339	-1,5	-0,714
1402,88	0	-0,44
1413,422	0,5	-0,242
1423,963	1,5	-0,152
1434,498	1,5	-0,144
1445,034	3	-0,092
1455,581	3	-0,07
1466,117	4	-0,03
1476,67	3,5	-0,06
1487,199	3,5	-0,028
1497,747	4	-0,018
1508,294	4	-0,02
1518,824	4	-0,021
1529,359	3,5	-0,038
1539,9	3	-0,072
1550,43	0	-0,315
1560,983	0	-0,391
1571,525	0	-0,382
1582,054	-2,5	-0,844
1592,595	-3	-0,831
1603,131	-2,5	-0,868
1613,66	-3,5	-1,039
1624,208	-5	-1,254
1634,749	-6	-1,396
1645,284	-6	-1,455
1655,838	-5,5	-1,359
1666,367	-5	-1,274
1676,909	-3,5	-1,075
1687,444	-3	-1,044
1697,985	-3	-0,994
1708,539	-2,5	-0,9
1719,08	-2,5	-0,885
1729,628	-2	-0,822
1740,157	-3	-0,98
1750,68	-4	-1,174
1761,216	-4	-1,18
1771,751	-4,5	-1,244
1782,274	-4,5	-1,215
1792,792	-4,5	-1,305
1803,333	-5,5	-1,457
1813,881	-5,5	-1,461
1824,41	-5	-1,408
1834,939	-7,5	-1,714
1845,481	-7	-1,658
1856,106	-5	-1,454
1866,642	-7	-1,641
1877,177	-7,5	-1,722
1887,724	-8	-1,87
1898,26	-12	-2,173
1908,795	-13,5	-2,329
1919,343	-10,5	-2,124
1929,89	-11,5	-2,188
1940,431	-11	-2,197
1950,973	-10,5	-2,244
1961,52	-14	-2,554
1972,062	-15	-2,701
1982,603	-14,5	-2,64
1993,144	-17,5	-2,684
2003,698	-16	-2,851
2014,227	-15,5	-2,743
2024,763	-18,5	-3,058
2035,298	-18	-2,964
2045,839	-20,5	-3,126
2056,387	-19,5	-3,105
2066,928	-19,5	-3,181
2077,476	-19	-3,202
2088,017	-17	-3,087
2098,534	-18	-3,376
2109,082	-17,5	-3,283
2119,623	-17	-3,191
2130,159	-17	-3,274
2140,7	-16,5	-3,388
2151,235	-15,5	-3,29
2161,777	-15	-3,419
2172,342	-14,5	-3,08
2182,896	-11,5	-2,905
2193,437	-8	-2,625
2203,972	-9	-2,776
2214,508	-14,5	-3,286
2225,031	-11,5	-2,991
2235,555	-9,5	-2,86
2246,078	-5,5	-2,533
2256,613	-3	-2,124
2267,137	-4	-2,424
2277,672	-3	-2,144
2288,196	-1	-1,828
2298,719	0	-1,543
2309,248	0	-1,238
2319,772	0,5	-1,038
2330,307	1,5	-0,609
2340,831	2,5	-0,202
2351,366	3,5	-0,06
2361,907	4,5	-0,012
2372,437	4,5	-0,004
2382,978	4,5	-0,001
2393,514	4,5	-0,176
2404,055	1	-0,657
2414,596	-1	-1,101
2425,132	-1,5	-1,436
2435,661	-2,5	-1,824
2446,203	-3,5	-2,354
2456,816	-6	-3,114
2467,363	-8	-3,357
2477,911	-10	-3,433
2488,446	-11	-3,479
2498,994	-11	-3,495
2509,529	-11	-3,498
2520,07	-10,5	-3,489
2530,612	-11	-3,171
2541,153	-6,5	-2,864
2551,689	-4,5	-2,647
2562,218	-2,5	-2,38
2572,753	-1,5	-2,125
2583,289	-1	-2,072
2593,818	-0,5	-1,998
2604,36	0	-1,703
2614,901	0	-1,578
2625,442	0,5	-1,208
2635,984	1	-0,859
2646,519	1,5	-0,615
2657,073	3	-0,114
2667,602	4	-0,018
2678,143	4,5	-0,007
2688,673	4,5	-0,004
2699,226	4,5	-0,001
2709,762	4,5	-0,267
2720,315	0	-0,763
2730,844	-0,5	-1,078
2741,374	-0,5	-1,307
2751,921	-0,5	-1,394
2762,451	-1,5	-1,557
2772,992	-1	-1,572
2783,539	-1,5	-1,668
2794,081	-1,5	-1,761
2804,604	-2	-2,004
2815,145	-3,5	-2,64
2825,663	-4	-2,799
2836,204	-5	-3,121
2846,74	-6,5	-3,341
2857,281	-8,5	-3,421
2867,798	-9,5	-3,457
2878,34	-10	-3,465
2888,875	-9,5	-3,461
2899,411	-9,5	-3,46
2909,946	-10	-3,48
2920,487	-10	-3,495
2931,017	-10,5	-3,499
2941,558	-5,5	-2,971
2952,106	-1	-2,104
2962,641	0	-1,514
2973,17	0	-1,22
2983,706	0,5	-0,86
2994,247	1,5	-0,442
3004,771	3	-0,133
3015,306	4	-0,015
3025,835	4	-0,003
3036,365	4	-0,002
3046,9	4	-0,001
3057,508	3	-0,389
3068,043	1	-0,767
3078,584	-0,5	-1,184
3089,102	-1	-1,518
3099,643	-1,5	-2,01
3110,179	-2	-2,274
3120,72	-2	-2,442
3131,255	-3	-2,697
3141,791	-4	-3,069
3152,326	-5	-3,279
3162,088	4	-0,001