File: ensaios_Ciclicos/sem_TC/entrada/_6.txt
Time (s)	Load (N)	Displacement (mm)
0	0	-0,028
10,593	1,5	0
21,141	2	-0,001
31,688	2,5	-0,001
42,242	2,5	-0,001
52,795	2,5	-0,006
63,354	1,5	-0,068
73,914	-1	-0,286
84,479	-1	-0,285
95,032	-7	-1,013
105,592	-13	-1,58
116,139	-23	-2,45
126,705	-33,5	-3,477
137,246	-33	-3,491
147,788	-20,5	-2,75
158,347	-9	-1,642
168,888	3	0
179,454	3,5	-0,012
190,007	-0,5	-0,394
200,566	-6,5	-1,104
211,126	-10,5	-1,42
221,673	-8,5	-1,324
232,239	-12	-1,622
242,798	-17,5	-1,998
253,345	-16,5	-2,081
263,899	-22,5	-2,583
274,482	-29	-2,954
285,048	-31	-3,311
295,595	-31	-3,493
306,172	-31	-3,5
316,738	-31	-3,499
327,315	-31	-3,498
337,886	-31	-3,493
348,476	-30,5	-3,488
359,041	-30,5	-3,484
369,625	-25,5	-3,354
380,208	-16,5	-2,643
390,797	-8,5	-1,768
401,381	-4,5	-1,167
411,952	0	-0,726
422,536	3,5	0
433,113	3,5	-0,012
443,69	3	-0,044
454,292	1	-0,17
464,887	0	-0,248
475,465	0	-0,291
486,048	-3,5	-0,95
496,643	-6	-1,204
507,245	-3,5	-0,885
517,828	-1	-0,593
528,394	-2,5	-0,764
538,983	-1,5	-0,584
549,578	0	-0,281
560,144	0	-0,316
570,721	-0,5	-0,378
581,317	1	-0,115
591,888	1,5	-0,155
602,465	-1,5	-0,557
613,055	-4,5	-1,095
623,632	-8,5	-1,568
634,222	-8	-1,525
644,793	-9	-1,484
655,364	-6	-1,311
665,966	-13	-1,987
676,555	-15,5	-2,19
687,121	-15	-2,234
697,704	-12	-1,914
708,275	-13,5	-2,08
718,883	-13	-2,024
729,484	-11,5	-1,897
740,074	-10,5	-1,867
750,651	-12	-1,892
761,27	-10,5	-1,774
771,854	-8,5	-1,564
782,443	-7,5	-1,442
793,02	-5	-1,116
803,628	-2	-0,758
814,223	-0,5	-0,437
824,801	0	-0,387
835,384	0	-0,264
845,979	0	-0,258
856,557	0	-0,326
867,128	0	-0,359
877,712	0,5	-0,25
888,307	2	-0,128
898,896	3	-0,064
909,474	3	-0,074
920,063	3,5	-0,063
930,653	3,5	-0,029
941,236	4	-0,012
951,819	4	-0,008
962,421	4	-0,004
973,004	4	-0,002
983,576	4	-0,002
994,165	4	-0,001
1004,754	4	-0,002
1015,338	4	-0,001
1025,915	4	-0,001
1036,505	4	-0,055
1047,082	4	-0,185
1057,671	4	-0,286
1068,261	0	-0,643
1078,838	0,5	-0,597
1089,416	1,5	-0,524
1099,999	0	-0,652
1110,582	-1	-0,806
1121,172	-2	-0,921
1131,755	-3,5	-1,15
1142,369	-5,5	-1,556
1152,958	-6	-1,68
1163,541	-7	-1,888
1174,125	-5,5	-1,559
1184,708	-5,5	-1,601
1195,297	-4,5	-1,402
1205,881	-5	-1,604
1216,464	-5,5	-1,588
1227,048	-6	-1,727
1237,625	-6,5	-1,818
1248,214	-8,5	-1,959
1258,798	-7	-1,933
1269,369	-10	-2,306
1279,953	-13	-2,624
1290,524	-17,5	-3,063
1301,101	-18	-3,07
1311,685	-19,5	-3,235
1322,268	-21,5	-3,355
1332,84	-22,5	-3,364
1343,435	-24,5	-3,44
1354,03	-24,5	-3,449
1364,614	-25,5	-3,469
1375,203	-25,5	-3,484
1385,799	-26	-3,492
1396,388	-26	-3,498
1406,971	-26	-3,5
1417,567	-23,5	-2,959
1428,15	-15,5	-2,449
1438,746	-10,5	-1,921
1449,329	-7,5	-1,694
1459,918	-6	-1,514
1470,502	-5	-1,302
1481,079	-2	-0,804
1491,663	0	-0,322
1502,252	3	-0,079
1512,829	4	-0,023
1523,413	4	-0,003
1533,996	4	-0,002
1544,574	4	-0,001
1555,163	4	-0,001
1565,74	4	-0,007
1576,324	0	-0,649
1586,895	-3	-1,174
1597,472	-5,5	-1,719
1608,074	-7,5	-2,096
1618,651	-9	-2,209
1629,223	-12,5	-2,58
1639,806	-19	-3,221
1650,389	-22,5	-3,443
1660,973	-25	-3,494
1671,55	-25,5	-3,499
1682,116	-24	-3,185
1692,681	-24	-2,928
1703,258	-14	-2,373
1713,83	-10	-1,932
1724,407	-8	-1,744
1734,973	-4,5	-1,43
1745,544	-2	-0,863
1756,121	0	-0,325
1766,705	3,5	-0,044
1777,276	4	-0,008
1787,848	4,5	-0,002
1798,431	4	-0,061
1809,014	1,5	-0,567
1819,598	-1	-0,886
1830,157	-2,5	-1,127
1840,741	-3,5	-1,494
1851,318	-4,5	-1,677
1861,895	-5	-1,827
1872,473	-6	-1,968
1883,068	-8	-2,23
1893,658	-11,5	-2,659
1904,241	-16,5	-3,073
1914,83	-18,5	-3,299
1925,42	-22	-3,417
1935,991	-23	-3,449
1946,569	-23,5	-3,473
1957,152	-24	-3,494
1967,729	-24	-3,497
1978,307	-24	-3,498
1988,878	-24	-3,499
1999,468	-24	-3,252
2010,027	-23	-3,108
2020,61	-15,5	-2,624
2031,194	-12	-2,32
2041,765	-10,5	-2,135
2052,349	-7	-1,854
2062,926	-5,5	-1,602
2073,503	-5	-1,515
2084,087	-1,5	-1,026
2094,658	-1,5	-0,979
2105,241	-0,5	-0,714
2115,837	1	-0,284
2126,42	3	-0,079
2136,992	4	-0,035
2147,569	4,5	-0,016
2158,17	4	-0,007
2168,748	4,5	-0,003
2179,325	4,5	-0,001
2189,915	4,5	-0,001
2200,492	4,5	-0,001
2211,081	4,5	-0,001
2221,659	4,5	-0,01
2232,224	4,5	0
2242,802	4,5	-0,033
2253,373	4,5	-0,329
2263,944	3,5	-0,439
2274,504	1	-0,671
2285,069	1	-0,725
2295,641	-1	-1,138
2306,206	-1,5	-1,255
2316,777	-2	-1,46
2327,355	-4	-2,017
2337,92	-5	-2,399
2348,492	-6	-2,632
2359,069	-7,5	-2,82
2369,628	-8,5	-3,003
2380,206	-9,5	-3,224
2390,777	-10	-3,274
2401,343	-10,5	-3,321
2411,92	-11,5	-3,387
2422,485	-12	-3,374
2433,069	-13,5	-3,462
2443,634	-14	-3,478
2454,212	-13,5	-3,48
2464,777	-13,5	-3,491
2475,354	-13,5	-3,496
2485,926	-13,5	-3,498
2496,491	-13,5	-3,498
2507,057	-13	-3,499
2517,628	-13	-3,499
2528,187	-13	-3,417
2538,753	-12	-3,134
2549,33	-7,5	-2,864
2559,902	-4,5	-2,563
2570,479	-2	-2,136
2581,056	0	-1,64
2591,634	0	-1,212
2602,211	1	-0,876
2612,776	1,5	-0,471
2623,354	3,5	-0,114
2633,925	4	-0,026
2644,503	4,5	-0,01
2655,074	4,5	-0,002
2665,651	4,5	-0,001
2676,235	4,5	-0,105
2686,806	4,5	-0,242
2697,378	1	-0,631
2707,955	0	-0,761
2718,538	-0,5	-1,175
2729,11	-1	-1,433
2739,681	-1,5	-1,873
2750,259	-2	-2,067
2760,848	-2,5	-2,231
2771,431	-2,5	-2,325
2782,009	-3	-2,503
2792,586	-3	-2,536
2803,17	-3	-2,557
2813,747	-3,5	-2,756
2824,33	-4,5	-3,091
2834,92	-4	-2,887
2845,491	-4	-2,971
2856,069	-7	-3,359
2866,658	-9	-3,448
2877,241	-9,5	-3,472
2887,819	-10	-3,488
2898,414	-10	-3,49
2908,986	-10	-3,481
2919,575	-10	-3,485
2930,152	-8	-3,437
2940,724	-8	-3,418
2951,301	-8	-3,416
2961,891	-6,5	-3,311
2972,468	-4,5	-3,132
2983,057	-6	-3,288
2993,641	-4	-2,891
3004,218	-2	-2,175
3014,802	-1	-1,738
3025,385	-0,5	-1,197
3035,962	0	-0,837
3046,546	4	-0,067
3057,129	4,5	-0,142
3067,725	4	-0,251
3078,314	4	-0,205
3088,885	4	-0,001
3099,475	4,5	-0,001
3110,052	4,5	-0,004
3120,635	4	-0,026
3131,213	1,5	-0,436
3141,796	0	-1,34
3152,374	-0,5	-1,891
3162,945	-1	-2,254
3170,127	4	-0,001