File: Cycling_tests/_20perc/_2gap/entrada/_1.txt
Time (s)	Load (N)	Displacement (mm)
83,067	-13	-1,804
83,901	1,5	-0,588
84,699	-29	-3,495
85,948	3,5	-0,083
86,781	-29	-3,491
87,674	1	-0,173
88,497	-11,5	-2,121
89,349	-20,5	-2,495
90,187	3,5	-0,001
91,01	-28	-3,467
91,849	-3	-0,783
92,666	-6	-1,391
93,525	-29	-3,214
94,34	3,5	-0,008
95,138	-19,5	-3,009
95,936	-13	-1,894
96,74	3,5	-0,283
97,593	-29	-3,495
98,42	0	-0,24
99,254	-11	-2,054
100,076	-22	-2,639
100,922	3,5	-0,001
101,738	-27,5	-3,444
102,548	-5	-1,021
103,382	-5	-1,248
104,168	-29	-3,499
104,978	3	-0,045
105,866	-18	-2,881
106,753	-9,5	-1,57
107,587	-0,5	-0,796
108,409	-28,5	-3,498
109,243	3	-0,061
110,102	-15	-2,714
110,917	-16	-2,148
111,712	3,5	0
112,579	-28,5	-3,489
113,809	3,5	-0,001
114,679	-27,5	-3,472
115,549	-1,5	-0,524
116,365	-6,5	-1,654
117,229	-26	-2,962
118,093	3,5	-0,002
118,939	-26,5	-3,438
119,803	-3	-0,819
120,667	-7	-1,689
121,507	-27	-2,954
122,347	3,5	-0,003
123,235	-27	-3,443
124,075	-3	-0,885
124,95	-8	-1,679
125,803	-24,5	-2,905
126,631	3,5	-0,002
127,447	-24,5	-3,377
128,262	-7	-1,328
129,096	-3	-0,957
129,924	-28,5	-3,499
130,811	3,5	-0,016
131,677	-20,5	-3,106
132,517	-9	-1,568
133,38	-2,5	-0,925
134,226	-28,5	-3,499
135,06	3,5	-0,029
135,9	-16,5	-2,748
136,746	-13	-1,896
137,592	2	-0,452
138,402	-28	-3,495
139,248	1	-0,154
140,514	-28	-3,492
141,318	-0,5	-0,468
142,223	-11,5	-2,21
143,117	-15	-2,174
143,915	3,5	-0,03
144,695	-27	-3,466
145,571	-1	-0,633
146,393	-7	-1,623
147,24	-25,5	-2,971
148,049	4	-0,004
148,871	-22,5	-3,271
149,663	-10,5	-1,691
150,491	0	-0,628
151,325	-28	-3,498
152,105	0,5	-0,217
152,933	-10	-2,102
153,809	-18	-2,485
154,631	3,5	-0,001
155,465	-27	-3,466
156,263	-3,5	-0,945
157,073	-5	-1,335
157,889	-28	-3,5
158,715	3,5	-0,019
159,502	-15	-2,653
160,288	-15	-2,2
161,117	4	-0,052
161,914	-27,5	-3,479
162,742	-1,5	-0,644
163,552	-6,5	-1,557
164,326	-27,5	-3,489
284,067	-17,5	-2,987
284,902	-8,5	-1,734
285,708	3	-0,426
286,492	-26	-3,492
287,29	0	-0,575
288,093	-5	-1,58
288,879	-26	-3,462
289,659	4	-0,027
290,439	-12	-2,438
291,207	-19,5	-2,666
292,359	-3,5	-1,188
293,157	-26	-3,499
293,937	3	-0,061
294,741	-10	-2,353
295,539	-18	-2,549
296,367	4	-0,001
297,159	-24	-3,442
297,965	-3,5	-1,119
298,761	-2,5	-1,027
299,553	-26	-3,498
300,344	3	-0,067
301,124	-9	-2,172
301,904	-20,5	-2,724
302,678	4	-0,003
303,458	-19	-3,172
304,208	-11	-1,891
305,006	4	-0,189
305,781	-25,5	-3,48
306,566	-2	-0,839
307,346	-3	-1,144
308,126	-26	-3,499
308,918	3	-0,084
309,704	-9,5	-2,19
310,52	-17,5	-2,553
311,326	4	-0,001
312,122	-23,5	-3,413
312,902	-5,5	-1,36
313,682	1	-0,649
314,48	-26	-3,496
315,278	1	-0,244
316,058	-6	-1,763
316,879	-24	-3,024
317,641	4	-0,01
318,427	-15	-2,831
319,219	-13	-2,126
320,017	4	-0,004
320,833	-25,5	-3,48
321,631	-2	-0,822
322,424	-4,5	-1,333
438,144	-5	-1,563
438,931	-25	-3,36
439,698	4	-0,03
440,484	-11	-2,502
441,264	-16,5	-2,462
442,032	4	-0,002
442,824	-20,5	-3,362
443,621	-5,5	-1,433
444,378	2	-0,516
445,147	-25	-3,49
445,932	-0,5	-0,621
446,73	-4,5	-1,478
447,516	-25	-3,486
448,29	4	-0,034
449,046	-10,5	-2,352
449,838	-18,5	-2,645
450,636	4	-0,002
451,404	-19,5	-3,316
452,19	-6	-1,512
452,97	2,5	-0,481
453,756	-25	-3,493
454,529	0	-0,584
455,31	-4,5	-1,458
456,101	-25	-3,5
456,869	4	-0,046
457,65	-10	-2,323
458,429	-18	-2,679
459,197	4,5	-0,003
459,983	-18,5	-3,234
460,745	-9,5	-1,854
461,513	4	-0,077
462,287	-24,5	-3,472
463,055	-4	-1,25
463,841	-1	-0,874
464,621	-25	-3,498
465,383	0,5	-0,303
466,151	-5,5	-1,622
466,919	-25	-3,472
467,681	3,5	-0,039
468,461	-10,5	-2,46
469,235	-18	-2,647
470,003	4	-0,003
470,771	-18	-3,178
471,533	-9,5	-1,908
472,307	4	-0,064
473,086	-24,5	-3,474
473,867	-2	-0,982
474,646	-2	-1,054
550,278	-12,5	-2,658
551,052	-14	-2,342
551,826	4	-0,001
552,588	-21	-3,364
553,362	-6	-1,599
554,13	3	-0,412
554,904	-24,5	-3,49
555,664	-1	-0,736
556,446	-4	-1,328
557,226	-24,5	-3,499
558,03	4	-0,04
558,78	-8,5	-2,232
559,554	-20	-2,83
560,316	4	-0,005
561,096	-15,5	-3,004
561,857	-11,5	-2,072
562,625	4,5	0
563,393	-23	-3,447
564,161	-4	-1,313
564,929	0	-0,732
565,691	-24,5	-3,496
566,435	0	-0,612
567,221	-4,5	-1,449
567,989	-24,5	-3,5
568,763	4	-0,047
569,526	-9	-2,235
570,293	-19,5	-2,822
571,061	4	-0,005
571,829	-15,5	-2,989
572,597	-11,5	-2,099
573,365	4	0
574,127	-23	-3,44
574,907	-4	-1,262
575,681	-0,5	-0,764
576,431	-24,5	-3,495
577,204	0	-0,511
577,984	-5	-1,552
578,741	-24,5	-3,5
579,526	4	-0,032
580,306	-10,5	-2,444
581,062	-17	-2,673
581,848	4	-0,002
582,622	-19	-3,266
583,373	-8,5	-1,783
584,141	4	-0,284
584,938	-24	-3,487
585,682	-1,5	-0,967
586,456	-2	-1,023
662,34	-24	-3,497
663,12	1,5	-0,198
663,894	-6	-1,896
664,68	-22,5	-3,119
665,441	4	-0,014
666,215	-13,5	-2,726
666,989	-12,5	-2,248
667,773	4	-0,001
668,531	-21,5	-3,414
669,299	-4,5	-1,416
670,055	1,5	-0,505
670,811	-24	-3,49
671,592	-0,5	-0,695
672,353	-3,5	-1,326
673,115	-24	-3,499
673,889	3,5	-0,066
674,633	-7,5	-2,118
675,389	-22,5	-2,96
676,157	4	-0,008
676,913	-14,5	-2,812
677,681	-11,5	-2,192
678,437	4	-0,001
679,193	-20,5	-3,384
679,961	-5,5	-1,563
680,723	3	-0,42
681,479	-24	-3,487
682,235	-1,5	-0,922
682,991	-2,5	-1,085
683,758	-24	-3,498
684,514	1,5	-0,235
685,27	-5,5	-1,858
686,038	-24	-3,252
686,8	4	-0,021
687,568	-11,5	-2,576
688,312	-19,5	-2,643
689,068	4,5	-0,003
689,848	-17,5	-3,225
690,616	-7,5	-1,814
691,372	4	-0,116
692,152	-23,5	-3,477
692,92	-2,5	-1,054
693,688	-2	-0,964
694,456	-24	-3,498
695,224	1	-0,263
695,968	-5	-1,624
696,73	-24	-3,489
697,492	3,5	-0,042
698,26	-9,5	-2,324
699,016	-18	-2,819
3212,206	-2,5	-2,318
3212,95	-6	-2,875
3213,706	4	-0,007
3214,45	-3,5	-2,814
3215,206	-2	-2,292
3215,95	4,5	-0,001
3216,022	4,5	0