File: Cycling_tests/_20perc/_2gap/entrada/_4.txt
Time (s)	Load (N)	Displacement (mm)
0	0	-0,04
9,618	-33	-3,498
19,722	-6	-1,075
29,381	-25,5	-2,798
39,13	-1,5	-0,716
48,556	-30,5	-3,493
58,155	1	-0,074
67,599	-13	-2,139
76,97	-29,5	-3,241
86,22	-0,5	-0,317
95,413	1,5	-0,448
104,737	-28	-3,454
114,036	-13,5	-1,918
123,144	2,5	-0,027
132,809	-24	-3,397
142,006	-21,5	-2,672
151,264	2	-0,069
160,684	-8,5	-1,813
169,941	-27,5	-3,498
179,132	-6,5	-1,364
188,306	3	-0,002
197,453	-8,5	-1,882
285,134	-21,5	-2,656
293,912	-12,5	-2,02
302,731	-6	-1,335
311,581	0	-0,339
320,826	0	-0,687
368,043	1	-0,183
376,815	3	-0,024
385,556	3,5	-0,012
394,724	-3,5	-1,144
403,501	-4,5	-1,434
412,273	-5,5	-1,71
421,104	-11	-2,46
429,804	-12	-2,541
438,51	-11	-2,471
447,251	-12	-2,58
455,992	-14,5	-2,802
465,058	-25	-3,496
473,721	-24,5	-3,493
519,745	-12	-2,118
528,282	-19	-2,73
536,856	-20	-2,876
545,411	-24,5	-3,291
553,985	-24,5	-3,499
562,528	-24,5	-3,494
571,15	-24	-3,488
579,729	-22	-3,405
625,807	-24	-3,332
634,32	-24	-3,497
642,846	-24	-3,472
651,335	-15	-3,024
659,783	-6	-1,787
668,326	-1,5	-0,884
676,858	3,5	0
685,317	3,5	-0,015
693,783	0	-0,517
702,26	-8	-1,919
710,744	-24	-3,01
719,185	-24	-3,495
727,693	-19,5	-3,36
809,744	3,5	-0,124
818,192	3,5	-0,012
826,609	0	-0,533
835,045	-8	-1,836
843,522	-22,5	-3,064
852	-23,5	-3,497
860,429	-20	-3,382
868,871	-8,5	-2,315
877,312	-3	-1,291
1033,568	3,5	0
1042,027	3,5	-0,016
1050,457	-0,5	-0,683
1058,868	-12	-2,336
1067,279	-22,5	-3,498
1075,727	-18,5	-3,378
1084,168	-5,5	-2,001
1092,616	1,5	-0,475
1101,046	4	-0,005
1109,463	0	-0,616
1117,869	-9	-2,074
1126,334	-22,5	-3,363
1134,752	-22,5	-3,494
1436,066	3,5	-0,03
1444,46	3,5	-0,014
1452,859	-0,5	-0,683
1461,265	-8	-2,014
1469,665	-21,5	-3,44
1478,07	-21,5	-3,484
1486,512	-13	-2,986
1494,905	-4	-1,638
1503,299	3	-0,39
1511,728	3,5	-0,002
1520,128	3	-0,051
1528,515	-1	-0,808
1536,939	-6	-1,814
1545,35	-15,5	-2,798
1553,744	-21,5	-3,499
1562,131	-21	-3,476
1570,513	-11,5	-2,842
1578,906	-4	-1,631
1587,336	2	-0,467
1595,699	3,5	-0,004
1604,069	0,5	-0,32
1612,474	-4,5	-1,568
1620,85	-15,5	-2,778
1629,255	-21,5	-3,498
1637,661	-21	-3,484
1646,072	-12	-2,927
1654,478	-4,5	-1,771
1662,871	1	-0,566
1671,229	3,5	-0,005
1679,574	0	-0,554
1687,98	-7	-1,991
1696,35	-21,5	-3,472
1704,737	-21,5	-3,487
1713,119	-11	-2,783
1721,494	-3	-1,369
1729,894	3,5	0
1738,245	2	-0,129
1746,639	-3	-1,394
1755,02	-16,5	-2,835
1763,408	-21,5	-3,496
1771,765	-11,5	-2,968
1780,117	-2,5	-1,292
1788,493	3,5	-0,001
1797,264	3	-0,544
1805,627	4	-0,002
1814,015	3,5	-0,033
1822,372	0	-0,508
1830,742	-3,5	-1,445
1839,099	-14,5	-2,654
1847,487	-21	-3,499
1855,887	-21	-3,488
1864,232	-12	-3,014
1872,625	-5,5	-2,07
1881,007	-1	-0,943
1889,341	3,5	-0,001
1897,692	3,5	-0,027
1906,055	0	-0,458
1914,425	-2,5	-1,304
1922,801	-7	-2,058
1931,135	-20,5	-3,246
1939,468	-20,5	-3,493
1947,843	-15,5	-3,318
1956,207	-5,5	-2,18
1964,546	-1	-0,875
1972,904	3,5	-0,001
1981,279	3,5	-0,024
1989,655	0	-0,498
1998,03	-4	-1,574
2006,364	-20	-3,193
2014,697	-20	-3,483
2023,079	-10	-2,825
2031,46	-2,5	-1,399
2039,812	3,5	-0,001
2048,164	1,5	-0,141
2056,485	-5	-1,839
2064,855	-19,5	-3,447
2073,176	-19	-3,466
2081,534	-7,5	-2,432
2089,879	-1	-0,918
2098,231	3,5	-0,004
2106,594	0	-0,514
2114,976	-7	-2,093
2123,327	-19,5	-3,499
2131,679	-17	-3,42
2140,048	-5	-2,022
2148,412	0	-0,64
2156,751	4	-0,008
2165,091	0	-0,628
2173,508	-3,5	-1,621
2181,848	-16,5	-3,038
2190,169	-19,5	-3,493
2198,527	-12	-3,011
2206,866	-3	-1,583
2215,218	0,5	-0,599
2223,569	3,5	-0,002
2231,921	1,5	-0,193
2240,284	-2	-1,371
2248,618	-16,5	-3,01
2256,963	-19,5	-3,494
2265,321	-11,5	-3,062
2273,667	-2	-1,267
2282,036	3,5	-0,001
2290,382	2,5	-0,083
2298,739	-2	-1,274
2307,121	-12,5	-2,699
2315,52	-19	-3,499
2323,884	-16	-3,408
2332,205	-4	-1,922
2340,557	2	-0,486
2348,878	3,5	-0,022
2357,224	-1	-1,069
2365,569	-10,5	-2,45
2373,921	-19	-3,499
2382,255	-15,5	-3,391
2390,6	-4	-1,954
2398,921	2,5	-0,474
2407,255	3,5	-0,006
2415,582	0	-0,51
2423,922	-6,5	-2,144
2432,255	-18,5	-3,499
2440,619	-17	-3,448
2448,959	-4,5	-2,167
2457,328	0	-0,837
2465,668	3,5	-0,003
2473,989	1,5	-0,276
2482,323	-5	-1,774
2490,644	-18	-3,275
2498,996	-18	-3,494
2507,317	-9	-2,874
2515,681	-2,5	-1,556
2524,014	3,5	-0,082
2532,36	4	-0,02
2540,687	0	-0,894
2549,021	-5	-2,027
2557,366	-17,5	-3,203
2565,706	-17,5	-3,496
2574,117	-14,5	-3,405
2582,469	-6	-2,42
2590,832	-1,5	-1,256
2599,16	3,5	0
2607,487	3,5	-0,021
2615,839	0,5	-0,478
2624,16	-3	-1,749
2632,47	-14,5	-3,029
2640,846	-16	-3,498
2649,179	-15	-3,426
2657,507	-4	-2,203
2665,852	-0,5	-0,932
2674,204	4	-0,001
2682,537	3,5	-0,04
2690,871	0	-0,92
2699,198	-4	-2,099
2707,58	-12,5	-3,052
2715,925	-15	-3,494
2724,277	-10,5	-3,258
2732,628	-3	-1,848
2740,956	3,5	-0,327
2749,307	4	-0,005
2757,635	0	-0,646
2766,022	-3,5	-1,943
2774,356	-13,5	-3,499
2782,689	-13,5	-3,464
2791,023	-4	-2,48
2799,381	0	-0,839
2807,714	3,5	-0,006
2816,036	0	-0,946
2824,369	-7	-2,564
2832,697	-13,5	-3,498
2841,018	-7,5	-3,148
2849,346	-2	-1,598
2857,691	3,5	-0,3
2866,007	3,5	-0,03
2874,322	-0,5	-1,465
2882,65	-11	-3,06
2890,989	-12,5	-3,49
2899,347	-6	-2,967
2907,686	-1,5	-1,338
2916,038	3,5	-0,001
2924,383	3	-0,055
2932,717	0	-1,239
2941,08	-5,5	-2,582
2949,438	-12	-3,498
2957,778	-7,5	-3,22
2966,123	-1	-1,447
2974,462	4	-0,001
2982,802	2	-0,161
2991,129	-1	-1,664
2999,487	-10,5	-3,086
3007,821	-12	-3,495
3016,196	-7,5	-3,284
3024,554	-1,5	-1,913
3032,905	3	-0,396
3041,263	4	-0,003
3049,584	1	-0,354
3057,93	-1	-1,773
3066,275	-9,5	-3,128
3074,633	-10,5	-3,495
3083,014	-8	-3,351
3091,342	-2	-2,085
3099,687	0	-0,852
3108,027	4	-0,002
3116,378	1,5	-0,211
3124,73	0	-1,529
3133,063	-5	-2,731
3141,391	-10,5	-3,499
3149,748	-10	-3,472
3158,1	-3,5	-2,664
3166,488	-0,5	-1,254
3174,809	3,5	-0,001
3183,173	2,5	-0,117
3191,53	0	-1,59
3199,858	-9	-3,1
3208,209	-10	-3,495
3216,531	-5,5	-3,11
3224,846	-1	-1,478
3233,186	4	-0,046
3241,549	3,5	-0,011
3246,037	3,5	0