File: Cycling_tests/_20perc/_2gap/entrada/_5.txt
Time (s)	Load (N)	Displacement (mm)
0	0,5	-0,146
12,204	-18	-1,895
24,197	-10,5	-1,806
36,497	2	-0,04
48,37	-24	-3,394
59,996	-9	-1,377
71,793	-6,5	-1,384
83,57	-25	-2,632
95,329	3	-0,169
106,962	-28	-3,486
119,184	3	-0,077
130,847	-27,5	-3,481
142,384	-7	-1,368
154,161	-7	-1,588
165,489	-27,5	-3,486
176,876	-12,5	-1,942
188,678	-3	-1,017
200,257	-27	-3,498
212,034	3,5	-0,011
223,469	-9	-2,154
234,617	-26,5	-3,478
246,256	-1,5	-0,682
257,5	3,5	-0,001
268,792	-9	-2,022
280,442	-22,5	-2,868
291,612	-3,5	-1,003
302,725	3,5	-0,023
314,286	-11	-2,361
325,428	-25,5	-3,482
336,509	-25,5	-3,292
347,638	-11,5	-1,788
358,63	-2,5	-0,971
369,525	0	-0,414
380,504	3,5	-0,018
391,544	3,5	-0,001
402,403	3,5	-0,001
413,341	3,5	-0,223
424,344	-3	-1,009
435,233	-4,5	-1,412
446,537	-24	-3,469
457,48	-25	-3,493
468,286	-24,5	-3,49
479,163	-24,5	-3,497
489,884	-24,5	-3,486
500,612	-24	-3,476
511,297	-21,5	-3,384
559,63	-9,5	-1,939
570,736	1	-0,287
581,367	-3	-1,089
591,92	-14	-2,403
602,486	-24	-3,499
613,483	-18,5	-2,751
624,133	-24	-3,5
671,632	-24	-3,499
682,173	-20	-3,378
692,727	-7	-2,04
703,664	-11,5	-2,607
714,241	-3,5	-1,413
724,765	3,5	0
735,312	3,5	-0,051
746,304	4	-0,005
756,863	0,5	-0,354
767,391	-8,5	-1,798
777,964	-23,5	-3,09
788,535	-23,5	-3,496
799,107	-18,5	-3,333
809,642	-6,5	-2,02
820,189	0	-0,777
830,731	4	-0,002
841,248	1,5	-0,168
852,198	4	-0,01
862,727	0	-0,604
873,274	-6,5	-1,793
883,828	-22,5	-3,19
894,388	-23	-3,491
904,923	-12,5	-2,824
915,482	-3,5	-1,422
926,035	4	-0,17
936,565	4	-0,016
947,106	-1,5	-0,858
957,612	-14,5	-2,603
968,123	-22,5	-3,496
978,67	-16,5	-3,234
989,158	-3,5	-1,498
999,657	4	-0,001
1010,162	3	-0,088
1020,716	-3	-1,234
1031,149	-22,5	-3,16
1041,685	-22	-3,491
1052,172	-12	-2,832
1062,666	-3	-1,302
1073,171	4	-0,001
1083,67	1	-0,349
1094,158	-10,5	-2,179
1104,687	-22	-3,499
1115,186	-20,5	-3,436
1125,692	-6	-2,042
1136,209	2,5	-0,452
1146,763	4	-0,004
1157,25	-0,5	-0,732
1167,75	-13,5	-2,459
1178,243	-22	-3,496
1188,766	-12,5	-2,943
1199,254	-3	-1,379
1209,801	4	0
1220,29	3	-0,072
1230,818	-3,5	-1,387
1241,329	-21	-3,082
1251,871	-21,5	-3,49
1262,383	-8	-2,442
1272,839	0	-0,722
1283,297	4	-0,007
1293,772	0	-0,481
1304,248	-10	-2,223
1314,759	-21,5	-3,498
1325,223	-12	-2,901
1335,728	-2,5	-1,187
1346,215	4	-0,002
1356,727	1,5	-0,186
1367,196	-8	-2,027
1377,642	-21,5	-3,499
1388,117	-15	-3,242
1398,58	-3	-1,483
1409,08	4	0
1419,579	4	-0,037
1430,096	-3,5	-1,428
1440,596	-21	-3,238
1451,065	-20,5	-3,469
1461,553	-5	-1,984
1472,07	4	-0,163
1482,552	3,5	-0,057
1493,021	-4	-1,528
1503,49	-21	-3,288
1514,002	-20,5	-3,475
1524,483	-5,5	-2,064
1534,958	4	-0,012
1545,434	3	-0,122
1555,879	-7,5	-2,069
1566,355	-21	-3,498
1576,818	-14,5	-3,205
1587,288	-2	-1,221
1597,745	4	-0,004
1608,208	0	-0,702
1618,654	-13,5	-2,658
1629,549	-10	-2,378
1640,03	-21	-3,498
1650,47	-11	-2,89
1660,922	-0,5	-0,969
1671,373	4	-0,007
1681,824	-1	-1,024
1692,245	-18	-2,986
1702,697	-20,5	-3,482
1713,131	-6	-2,246
1723,576	3,5	-0,449
1734,051	4	-0,018
1744,473	-4,5	-1,556
1754,87	-21	-3,499
1765,304	-12	-2,997
1775,719	0	-0,827
1786,14	4	-0,01
1796,628	0	-0,751
1807,061	-14,5	-2,75
1817,488	-20	-3,484
1827,976	-7,5	-2,398
1838,379	4	-0,18
1848,843	3,5	-0,046
1859,246	-6	-1,828
1869,686	-20	-3,499
1880,101	-13,5	-3,147
1890,534	-2	-1,222
1900,932	4	-0,008
1911,311	-3	-1,409
1921,72	-20,5	-3,494
1932,142	-14,5	-3,248
1942,545	-1,5	-1,095
1952,967	4,5	-0,006
1963,406	-1	-1,01
1973,846	-17	-3,002
1984,261	-19	-3,452
1994,64	-3	-1,584
2005,026	4	-0,003
2015,405	-0,5	-1,024
2025,839	-20	-3,045
2036,218	-19	-3,454
2046,597	-2,5	-1,446
2056,983	4	-0,003
2067,368	-2,5	-1,323
2077,759	-20	-3,5
2088,187	-12,5	-3,154
2098,596	-1,5	-1,082
2109,024	4	-0,006
2119,403	-2	-1,25
2129,831	-20	-3,326
2140,216	-14	-3,234
2150,613	-1,5	-1,112
2161,041	4	-0,003
2171,456	-0,5	-0,903
2181,836	-17	-2,965
2192,245	-18,5	-3,448
2202,624	-3	-1,6
2213,034	4	-0,001
2223,419	0,5	-0,378
2233,829	-10	-2,402
2244,262	-20	-3,496
2254,677	-8,5	-2,629
2265,081	3	-0,441
2275,478	3	-0,069
2285,876	-6,5	-1,933
2296,255	-20	-3,497
2306,664	-9,5	-2,737
2317,11	1	-0,648
2327,531	4	-0,034
2337,941	-4,5	-1,778
2348,332	-19,5	-3,499
2358,735	-10	-2,887
2369,139	0	-0,711
2379,542	3,5	-0,023
2389,964	-3	-1,499
2400,343	-19,5	-3,499
2410,723	-11	-2,953
2421,156	-1,5	-0,996
2431,553	4	-0,015
2441,939	-3	-1,527
2452,324	-19,5	-3,499
2462,704	-7,5	-2,563
2473,095	4	-0,04
2483,474	1,5	-0,237
2493,872	-7,5	-2,183
2504,269	-19,5	-3,498
2514,685	-10,5	-2,918
2525,07	-0,5	-0,832
2535,461	4	-0,013
2546,303	4	-0,007
2556,67	-3	-1,477
2567,056	-19,5	-3,499
2577,447	-10,5	-2,837
2587,827	-0,5	-0,738
2598,254	4	-0,018
2608,633	-3	-1,505
2619,019	-19,5	-3,499
2629,41	-12	-3,097
2639,819	-1	-0,988
2650,205	4	-0,014
2660,59	-1,5	-1,174
2670,97	-18	-3,212
2681,397	-17	-3,462
2691,776	-3	-1,792
2702,174	4	-0,001
2712,577	0	-0,544
2722,963	-10	-2,555
2733,33	-17	-3,482
2743,715	-3,5	-1,851
2754,119	4	-0,001
2764,51	0	-0,627
2774,908	-11	-2,678
2785,287	-16	-3,472
2795,655	-3,5	-1,889
2806,034	4	-0,001
2816,431	0,5	-0,619
2826,805	-13,5	-2,915
2837,178	-15	-3,455
2847,57	-2,5	-1,734
2857,997	4	-0,001
2868,4	1	-0,427
2878,78	-10,5	-2,754
2889,177	-15	-3,482
2899,539	-2,5	-1,81
2909,912	4	-0,002
2920,286	0	-0,77
2930,695	-8,5	-2,714
2941,068	-13,5	-3,472
2951,442	-2,5	-1,849
2961,875	4	0
2972,278	1,5	-0,283
2982,676	-4,5	-2,268
2993,055	-12,5	-3,496
3003,447	-4	-2,382
3013,856	2	-0,592
3024,247	4	-0,032
3034,609	-2,5	-1,899
3045	-12	-3,498
3055,398	-5	-2,778
3065,795	0	-0,832
3076,181	4	-0,019
3086,572	-1	-1,603
3096,945	-11,5	-3,499
3107,319	-6,5	-3,189
3117,698	-0,5	-1,101
3128,09	4	-0,004
3138,475	0	-0,926
3148,878	-7,5	-2,82
3159,264	-10,5	-3,476
3169,649	-2,5	-2,027
3180,07	4	-0,153
3190,444	1,5	-0,168
3200,811	-2,5	-2,164
3211,185	-10,5	-3,496
3221,558	-4	-2,676
3231,98	0,5	-0,824
3242,389	4	-0,015
3246,937	4	0