File: ensaios_Ciclicos/_50perc/_2gap/entrada/_3.txt
Time (s)	Load (N)	Displacement (mm)
0	0	-0,04
10,751	1	-0,187
21,472	1	0
32,224	1	-0,03
42,945	1	-0,07
53,685	1,5	-0,002
64,4	1,5	-0,001
75,127	1,5	-0,001
85,873	1,5	-0,002
96,588	1,5	-0,003
107,321	1,5	-0,004
118,049	1,5	-0,005
128,794	1,5	-0,009
139,54	1,5	-0,011
150,267	1,5	-0,015
160,994	1,5	-0,023
171,734	1,5	-0,022
182,473	1,5	-0,033
193,243	1,5	-0,033
203,982	1,5	-0,042
214,739	1,5	-0,022
225,485	1,5	-0,013
236,248	2	-0,005
246,999	2	-0,003
257,757	1,5	-0,001
268,496	1,5	-0,064
279,236	1,5	-0,324
290,005	0	-0,585
300,738	0	-0,735
311,502	-2	-1,166
322,271	-3	-1,686
333,016	-4	-1,901
343,78	-6	-2,349
354,519	-7	-2,534
365,271	-9	-2,805
375,998	-9	-2,945
386,755	-12	-3,324
397,501	-12,5	-3,394
408,216	-13	-3,407
418,962	-13	-3,446
429,701	-14,5	-3,476
440,464	-14,5	-3,491
451,198	-14,5	-3,493
461,943	-14,5	-3,496
472,701	-14,5	-3,498
483,464	-14,5	-3,499
494,215	-14,5	-3,5
504,949	-14,5	-3,317
515,694	-14,5	-3,224
526,427	-13	-3,023
537,173	-12	-2,9
547,906	-10	-2,688
558,67	-8	-2,404
569,421	-5,5	-2,08
580,19	-4,5	-1,744
590,936	-2,5	-1,323
601,693	-1,5	-1,076
612,427	-1,5	-0,968
623,166	-0,5	-0,64
633,923	0	-0,423
644,675	0,5	-0,227
655,426	1	-0,117
666,171	1	-0,084
676,923	2	-0,038
687,662	1,5	-0,026
698,426	2	-0,01
709,165	1,5	-0,012
719,898	2	-0,01
730,656	2	-0,004
741,401	2	-0,004
752,153	2	-0,004
762,88	1,5	-0,003
773,625	2	-0,003
784,359	2	-0,002
795,104	2	-0,001
805,837	2	-0,025
816,571	2	-0,052
827,322	2	-0,026
838,074	2	-0,082
848,825	1,5	-0,31
859,552	1,5	-0,181
870,304	2	-0,193
881,043	2	-0,169
891,789	1,5	-0,199
902,522	1,5	-0,356
913,279	1	-0,462
924,019	0	-0,674
934,752	0	-0,785
945,51	-0,5	-0,852
956,261	-1	-1,034
967,018	-2	-1,387
977,758	-2,5	-1,626
988,503	-2,5	-1,739
999,272	-3	-1,823
1010,012	-4	-2,104
1020,769	-4,5	-2,246
1031,509	-5,5	-2,52
1042,248	-6	-2,705
1052,993	-8	-2,994
1063,745	-9,5	-3,276
1074,49	-10,5	-3,367
1085,229	-12,5	-3,444
1095,975	-12,5	-3,451
1106,714	-12,5	-3,476
1117,46	-13	-3,492
1128,199	-13	-3,495
1138,92	-13	-3,494
1149,666	-13	-3,495
1160,411	-13	-3,497
1171,157	-13	-3,498
1181,884	-13	-3,499
1192,617	-13	-3,499
1203,369	-13	-3,499
1214,108	-13	-3,5
1224,854	-13	-3,498
1235,593	-13	-3,497
1246,344	-12,5	-3,388
1257,096	-12,5	-3,24
1267,841	-12	-3,178
1278,592	-11,5	-3,011
1289,332	-12,5	-3,136
1300,083	-11,5	-3,045
1310,811	-12,5	-3,193
1321,556	-12,5	-3,295
1332,289	-12,5	-3,206
1343,017	-12,5	-3,294
1353,768	-12,5	-3,195
1364,514	-12,5	-3,192
1375,253	-12	-3,079
1386,01	-11	-3,035
1396,744	-12	-3,045
1407,489	-12	-3,108
1418,229	-11	-3,008
1428,98	-12	-3,072
1439,713	-12	-3,162
1450,453	-12	-3,153
1461,204	-12,5	-3,354
1471,943	-12,5	-3,5
1482,677	-12,5	-3,499
1493,422	-13	-3,499
1504,168	-12,5	-3,498
1514,931	-12,5	-3,498
1525,652	-12,5	-3,498
1536,392	-12,5	-3,497
1547,167	-12,5	-3,498
1557,907	-12,5	-3,498
1568,64	-12,5	-3,498
1579,391	-12,5	-3,499
1590,131	-12,5	-3,5
1600,864	-12,5	-3,293
1611,585	-12	-3,163
1622,337	-9	-2,838
1633,076	-7,5	-2,637
1643,816	-7	-2,528
1654,549	-6,5	-2,409
1665,294	-4,5	-2,147
1676,016	-4,5	-2,117
1686,767	-3	-1,787
1697,501	-2,5	-1,685
1708,24	-2	-1,458
1718,979	-1,5	-1,354
1729,713	-1,5	-1,412
1740,452	-2	-1,472
1751,179	-1,5	-1,294
1761,925	-1	-1,288
1772,676	-1	-1,218
1783,422	-0,5	-1,062
1794,173	-0,5	-0,955
1804,912	-0,5	-0,946
1815,658	-0,5	-0,854
1826,397	0	-0,712
1837,149	0	-0,674
1847,876	0	-0,79
1858,627	0	-0,698
1869,367	0	-0,519
1880,106	0,5	-0,231
1890,839	1	-0,147
1901,573	1	-0,115
1912,312	1	-0,11
1923,04	1,5	-0,091
1933,773	1,5	-0,081
1944,512	1	-0,11
1955,246	1,5	-0,046
1965,985	1,5	-0,026
1976,731	2	-0,02
1987,482	2	-0,018
1998,221	2	-0,015
2008,961	2	-0,018
2019,7	2	-0,01
2030,44	2	-0,006
2041,179	2	-0,005
2051,906	2	-0,005
2062,658	2	-0,004
2073,397	2	-0,003
2084,124	2	-0,002
2094,864	2	-0,001
2105,603	2	-0,001
2116,343	2	0
2127,088	1,5	-0,18
2137,821	1,5	-0,329
2148,555	1,5	-0,388
2159,294	1,5	-0,498
2170,034	1	-0,491
2180,779	0	-0,663
2191,518	-0,5	-0,816
2202,264	-1	-1,074
2212,997	-1	-1,111
2223,736	-1,5	-1,201
2234,47	-1	-1,126
2245,197	-1	-1,134
2255,949	-1,5	-1,248
2266,676	-1,5	-1,337
2277,403	-1,5	-1,24
2288,137	-1	-1,234
2298,882	-1,5	-1,401
2309,64	-1,5	-1,665
2320,361	-2	-1,738
2331,1	-2	-1,847
2341,846	-2,5	-2,062
2352,579	-3,5	-2,322
2363,318	-4,5	-2,56
2374,058	-5,5	-2,872
2384,791	-7	-3,106
2395,531	-8	-3,314
2406,264	-9,5	-3,379
2416,997	-10,5	-3,456
2427,737	-10,5	-3,477
2438,488	-11	-3,488
2449,216	-11	-3,488
2459,937	-10,5	-3,489
2470,67	-10,5	-3,492
2481,404	-10,5	-3,495
2492,137	-10,5	-3,496
2502,87	-10,5	-3,497
2513,604	-11	-3,497
2524,337	-10,5	-3,497
2535,065	-10,5	-3,495
2545,804	-10,5	-3,496
2556,525	-10,5	-3,494
2567,271	-10,5	-3,498
2577,998	-10,5	-3,498
2588,726	-10,5	-3,498
2599,465	-10,5	-3,498
2610,21	-10,5	-3,499
2620,95	-10,5	-3,499
2631,689	-10	-3,413
2642,435	-9	-3,06
2653,168	-8	-2,98
2663,901	-7	-2,788
2674,617	-6,5	-2,783
2685,35	-4,5	-2,522
2696,089	-3,5	-2,342
2706,835	-2,5	-1,979
2717,562	-2	-1,823
2728,302	-1,5	-1,654
2739,047	-1,5	-1,626
2749,792	-1	-1,384
2760,532	-0,5	-1,29
2771,277	-0,5	-1,241
2782,017	-0,5	-1,078
2792,762	0	-0,926
2803,501	0	-0,833
2814,241	0	-0,769
2824,986	0	-0,593
2835,713	0	-0,522
2846,447	0	-0,638
2857,18	0	-0,611
2867,914	0,5	-0,542
2878,653	0	-0,494
2889,38	0,5	-0,355
2900,108	0,5	-0,31
2910,847	1	-0,185
2921,587	1	-0,099
2932,314	1,5	-0,086
2943,053	1	-0,117
2953,793	1,5	-0,051
2964,532	2	-0,035
2975,254	2	-0,022
2985,981	2	-0,012
2996,726	2	-0,006
3007,46	2	-0,003
3018,193	2	-0,002
3028,926	2	-0,002
3039,642	2	-0,001
3050,375	2	-0,001
3061,109	2	-0,089
3071,848	1,5	-0,267
3082,587	1	-0,49
3093,315	1	-0,588
3104,048	0	-0,733
3114,782	0	-0,686
3125,509	0	-0,73
3136,254	0	-0,96
3146,988	-0,5	-1,072
3157,721	-0,5	-1,11
3168,454	-0,5	-1,249
3179,194	-0,5	-1,349
3189,927	-0,5	-1,572
3200,661	-1	-1,774
3211,406	-1,5	-2,053
3215,258	2	0