File: ensaios_Ciclicos/_50perc/_2gap/entrada/_4.txt
Time (s)	Load (N)	Displacement (mm)
0	0	-0,034
10,829	1	-0,212
21,586	1,5	0
32,337	1,5	-0,001
43,107	1,5	-0,001
53,876	1,5	-0,001
64,664	1,5	-0,001
75,433	1,5	-0,002
86,214	1,5	-0,002
96,984	1,5	-0,007
107,747	1,5	-0,015
118,558	1,5	-0,021
129,334	1,5	-0,029
140,103	1,5	-0,036
150,879	1,5	-0,037
161,654	2	-0,027
172,447	2	-0,024
183,223	2	-0,013
193,998	2	-0,019
204,78	2	-0,026
215,591	2	-0,016
226,378	2	-0,006
237,178	2	-0,003
247,971	2	-0,002
258,782	2	-0,001
269,576	2	0
280,369	2	-0,217
291,162	1,5	-0,366
301,956	1,5	-0,391
312,773	0	-0,673
323,549	-0,5	-0,878
334,342	-1	-0,966
345,141	-1,5	-1,084
355,965	-2,5	-1,439
366,77	-3	-1,532
377,576	-4,5	-2,048
388,375	-6	-2,506
399,156	-6	-2,496
409,962	-6,5	-2,59
420,767	-8	-2,776
431,578	-8	-2,89
442,384	-9,5	-2,99
453,183	-11	-3,288
464,013	-12,5	-3,409
474,812	-13,5	-3,461
485,629	-14,5	-3,486
496,441	-14	-3,489
507,258	-14	-3,497
518,07	-14	-3,499
528,881	-14	-3,383
539,698	-12,5	-3,036
550,51	-10,5	-2,756
561,315	-9	-2,656
572,126	-7,5	-2,404
582,938	-4,5	-1,876
593,737	-0,5	-0,903
604,543	1,5	-0,141
615,36	2,5	-0,009
626,165	2	0
636,971	-1	-0,932
647,764	-3,5	-1,806
658,57	-7	-2,74
669,363	-10,5	-3,346
680,162	-13,5	-3,495
690,98	-13,5	-3,491
701,785	-10,5	-2,752
712,584	-5,5	-2,092
723,378	-2,5	-1,404
734,189	0	-0,566
744,989	1,5	-0,086
755,794	2,5	-0,016
766,575	2,5	-0,005
777,375	2,5	-0,003
788,156	2	-0,002
798,967	2	0
809,755	2	-0,001
820,56	2	-0,308
831,348	1	-0,58
842,147	0	-0,746
852,952	0	-0,888
863,746	0	-0,8
874,539	0	-0,797
885,345	-0,5	-0,903
896,132	-1,5	-1,167
906,925	-1,5	-1,218
917,737	-2	-1,337
928,536	-1,5	-1,286
939,335	-2,5	-1,505
950,141	-2,5	-1,593
960,922	-2	-1,493
971,734	-3	-1,708
982,545	-3	-1,844
993,32	-3	-1,793
1004,102	-3	-2,055
1014,883	-4,5	-2,348
1025,688	-5,5	-2,512
1036,488	-6,5	-2,774
1047,282	-7	-2,893
1058,075	-7,5	-3,018
1068,874	-9	-3,255
1079,667	-10	-3,338
1090,485	-12	-3,443
1101,284	-12,5	-3,465
1112,084	-12,5	-3,48
1122,871	-12,5	-3,483
1133,67	-12,5	-3,49
1144,464	-12,5	-3,493
1155,263	-12,5	-3,494
1166,044	-12,5	-3,49
1176,844	-12,5	-3,49
1187,637	-12,5	-3,488
1198,425	-12	-3,493
1209,218	-12	-3,493
1220,005	-12,5	-3,493
1230,811	-12,5	-3,496
1241,616	-12,5	-3,498
1252,41	-12,5	-3,499
1263,203	-12	-3,5
1273,99	-11,5	-3,092
1284,784	-6,5	-2,376
1295,577	-4,5	-2,023
1306,358	-3	-1,758
1317,146	-2,5	-1,491
1327,939	-2	-1,45
1338,733	-1,5	-1,412
1349,52	-1,5	-1,204
1360,313	-1	-1,123
1371,107	-0,5	-0,897
1381,888	0	-0,619
1392,67	0,5	-0,394
1403,457	1	-0,143
1414,244	1,5	-0,113
1425,044	2	-0,052
1435,837	2	-0,013
1446,636	2,5	-0,006
1457,424	2,5	-0,003
1468,211	2,5	-0,004
1479,011	2,5	-0,003
1489,798	2,5	-0,002
1500,585	2	-0,098
1511,391	1,5	-0,546
1522,172	0	-0,856
1532,954	-1,5	-1,256
1543,735	-2,5	-1,618
1554,528	-3,5	-2,142
1565,322	-3,5	-2,198
1576,103	-3,5	-2,226
1586,89	-4,5	-2,38
1597,672	-5,5	-2,609
1608,471	-7,5	-3,073
1619,247	-9	-3,332
1630,034	-9	-3,308
1640,821	-8,5	-3,24
1651,609	-7	-2,967
1662,396	-6,5	-2,939
1673,184	-5,5	-2,667
1683,971	-4,5	-2,365
1694,776	-4	-2,342
1705,552	-3,5	-2,258
1716,345	-4,5	-2,495
1727,15	-4,5	-2,522
1737,932	-4,5	-2,491
1748,719	-4,5	-2,58
1759,507	-4	-2,361
1770,294	-4	-2,387
1781,075	-4,5	-2,542
1791,875	-4,5	-2,532
1802,674	-4,5	-2,458
1813,45	-4	-2,35
1824,249	-4,5	-2,473
1835,042	-4,5	-2,614
1845,842	-5	-2,68
1856,641	-5	-2,657
1867,446	-6,5	-2,986
1878,228	-5	-2,786
1889,039	-7	-3,086
1899,821	-7,5	-3,209
1910,608	-8,5	-3,315
1921,377	-9	-3,329
1932,165	-8,5	-3,337
1942,952	-9,5	-3,372
1953,746	-9,5	-3,39
1964,527	-10	-3,366
1975,314	-9	-3,343
1986,102	-8,5	-3,296
1996,877	-7,5	-3,179
2007,676	-7,5	-3,148
2018,464	-7	-3,02
2029,251	-6	-2,833
2040,039	-5	-2,742
2050,82	-5	-2,717
2061,619	-4,5	-2,621
2072,401	-4,5	-2,5
2083,176	-3,5	-2,301
2093,963	-3,5	-2,343
2104,751	-5	-2,758
2115,526	-10	-3,418
2126,314	-10	-3,454
2137,101	-9,5	-3,424
2147,888	-9	-3,378
2158,682	-8,5	-3,325
2169,457	-8	-3,255
2180,251	-7,5	-3,298
2191,038	-7	-3,105
2201,813	-5,5	-2,933
2212,601	-5	-2,825
2223,394	-4	-2,53
2234,169	-4	-2,475
2244,969	-3,5	-2,423
2255,756	-3	-2,268
2266,55	-4,5	-2,626
2277,331	-4	-2,568
2288,118	-4	-2,552
2298,912	-4,5	-2,746
2309,693	-4,5	-2,716
2320,475	-3,5	-2,467
2331,262	-4	-2,664
2342,043	-7,5	-3,304
2352,831	-8	-3,334
2363,624	-7,5	-3,207
2374,405	-6	-3,028
2385,187	-4,5	-2,716
2395,974	-4	-2,603
2406,774	-4,5	-2,636
2417,555	-4	-2,547
2428,348	-3,5	-2,396
2439,142	-3	-2,148
2449,917	-2,5	-1,996
2460,705	-2	-1,73
2471,492	-2	-1,757
2482,303	-2	-1,902
2493,097	-2	-1,729
2503,896	-1,5	-1,602
2514,683	-1	-1,3
2525,465	-0,5	-0,89
2536,24	-0,5	-0,925
2547,022	0	-0,884
2557,797	0	-0,839
2568,59	0	-0,799
2579,366	0	-0,924
2590,141	0	-0,742
2600,922	-0,5	-1,078
2611,704	0,5	-0,813
2622,491	2,5	-0,173
2633,267	2,5	0
2644,06	2,5	-0,001
2654,841	2,5	-0,001
2665,617	2,5	-0,001
2676,404	2,5	-0,003
2687,186	2,5	-0,014
2697,973	2	-0,065
2708,76	1,5	-0,104
2719,548	2	-0,034
2730,335	2,5	-0,02
2741,122	2,5	-0,02
2751,91	2	-0,027
2762,697	2	-0,038
2773,479	2,5	-0,03
2784,272	2	-0,032
2795,065	2,5	-0,016
2805,847	3	-0,004
2816,634	2,5	-0,001
2827,434	2,5	0
2838,215	2,5	-0,001
2848,996	2,5	0
2859,784	2,5	-0,095
2870,577	2	-0,316
2881,364	2	-0,433
2892,158	1,5	-0,521
2902,957	1,5	-0,511
2913,745	1,5	-0,436
2924,532	1,5	-0,472
2935,313	2	-0,281
2946,101	2	-0,328
2956,882	2	-0,33
2967,67	1,5	-0,34
2978,445	2,5	-0,108
2989,238	2,5	-0,083
3000,032	2	-0,076
3010,801	2,5	0
3021,588	2,5	-0,001
3032,376	2	0
3043,163	2,5	0
3053,945	2,5	-0,001
3064,732	2,5	-0,001
3075,525	2,5	-0,001
3086,313	2,5	-0,001
3097,106	2,5	-0,001
3107,888	2,5	-0,002
3118,663	2,5	-0,003
3129,45	2,5	-0,003
3140,256	2,5	-0,003
3151,037	2,5	-0,003
3161,824	2,5	-0,002
3172,612	2	-0,001
3183,381	2,5	-0,001
3194,169	2,5	-0,001
3204,956	2	-0,006
3215,743	2,5	-0,008
3226,537	1	-0,106
3231,204	2,5	-0,001