File: ensaios_Ciclicos/_50perc/_2gap/entrada/_5.txt
Time (s)	Load (N)	Displacement (mm)
0	0	-0,036
10,666	1	0
21,262	1,5	-0,004
31,863	1,5	-0,016
42,465	-1	-0,397
53,072	-3,5	-1,058
63,673	-10	-2,108
74,287	-15	-2,792
84,906	-18	-3,337
95,519	-18	-3,499
106,133	-18	-3,489
116,752	-15,5	-3,418
127,36	-10,5	-2,85
137,979	-5	-1,93
148,604	-2,5	-1,225
159,224	-0,5	-0,798
169,843	2	-0,001
180,463	2,5	-0,009
191,112	2,5	-0,009
201,767	2	-0,018
212,411	2,5	-0,008
223,06	2,5	-0,005
233,686	2,5	-0,004
244,299	2,5	-0,003
254,924	2,5	-0,003
265,55	2	-0,008
276,163	2	-0,014
286,788	2,5	-0,011
297,414	2,5	-0,016
308,063	1,5	-0,095
318,689	1,5	-0,153
329,338	2	-0,047
339,999	2,5	-0,012
350,655	2,5	-0,005
361,292	2,5	-0,002
371,948	2,5	0
382,585	2,5	0
393,192	2,5	-0,001
403,824	2,5	0
414,449	2,5	-0,002
425,099	3	-0,001
435,748	2,5	-0,032
446,385	2	-0,366
457,029	0	-0,695
467,672	-2	-1,178
478,315	-3	-1,459
488,959	-2,5	-1,366
499,59	-3	-1,511
510,24	-4	-1,962
520,883	-6,5	-2,641
531,526	-9,5	-3,021
542,17	-12	-3,348
552,813	-14	-3,455
563,445	-15	-3,492
574,094	-15	-3,498
584,744	-15	-3,5
595,381	-15	-3,195
606,018	-13	-2,933
616,662	-10,5	-2,794
627,299	-9,5	-2,575
637,93	-9	-2,548
648,586	-7,5	-2,379
659,241	-10,5	-2,772
669,885	-10,5	-2,789
680,522	-9	-2,582
691,165	-7,5	-2,415
701,809	-7,5	-2,322
712,44	-5,5	-2,174
723,078	-6,5	-2,318
733,727	-8	-2,488
744,358	-12,5	-3,025
754,996	-14,5	-3,252
765,645	-13	-3,035
776,294	-11,5	-2,919
786,932	-11	-2,876
797,557	-10,5	-2,779
808,195	-14,5	-3,47
818,844	-14,5	-3,5
829,481	-14,5	-3,494
840,113	-12	-3,374
850,75	-6,5	-2,682
861,382	-4,5	-2,118
872,025	-1,5	-1,006
882,65	2,5	-0,001
893,288	2,5	-0,027
903,925	1	-0,208
914,557	0	-0,762
925,182	-2	-1,568
935,819	-7	-2,372
946,469	-5	-2,127
957,112	-5	-2,109
967,744	-5	-2,15
978,375	-5,5	-2,239
989,012	-3,5	-1,885
999,626	-2	-1,586
1010,245	-1,5	-1,358
1020,864	-0,5	-0,954
1031,496	-0,5	-0,954
1042,133	0	-0,829
1052,759	-0,5	-0,856
1063,396	-1,5	-1,325
1074,009	-4	-1,936
1084,617	-7	-2,385
1095,254	-4,5	-2,05
1105,862	-9,5	-2,724
1116,487	-6	-2,243
1127,118	-6,5	-2,364
1137,732	-9	-2,676
1148,357	-6,5	-2,381
1158,977	-4,5	-1,994
1169,608	-4	-2,014
1180,221	-5,5	-2,174
1190,853	-8,5	-2,656
1201,472	-8,5	-2,661
1212,08	-10,5	-2,883
1222,705	-8,5	-2,71
1233,336	-7,5	-2,518
1243,962	-6,5	-2,425
1254,593	-6	-2,386
1265,213	-6,5	-2,408
1275,832	-8,5	-2,649
1286,445	-11	-2,989
1297,059	-11	-3,035
1307,666	-13,5	-3,332
1318,292	-13,5	-3,499
1328,917	-13,5	-3,495
1339,542	-13,5	-3,493
1350,162	-13	-3,497
1360,769	-13,5	-3,438
1371,394	-13	-3,5
1382,014	-12	-3,11
1392,639	-6	-2,357
1403,265	-3,5	-1,919
1413,878	-2,5	-1,679
1424,479	-1	-1,313
1435,093	-0,5	-1,151
1445,712	0	-1,039
1456,338	0,5	-0,475
1466,957	1,5	-0,124
1477,57	2,5	-0,033
1488,202	3	-0,008
1498,815	3	-0,001
1509,429	2,5	-0,001
1520,054	3	-0,293
1530,667	2	-0,406
1541,281	2,5	-0,52
1551,9	-0,5	-0,96
1562,526	-1,5	-1,292
1573,145	-2,5	-1,685
1583,758	-3	-2,021
1594,378	-4,5	-2,515
1604,997	-7,5	-3,061
1615,617	-8,5	-3,266
1626,236	-11	-3,41
1636,867	-12	-3,468
1647,481	-13	-3,481
1658,106	-13	-3,49
1668,719	-12,5	-3,491
1679,333	-13	-3,496
1689,952	-13	-3,498
1700,566	-13	-3,499
1711,197	-13	-3,36
1721,811	-12	-3,106
1732,418	-9,5	-2,885
1743,043	-7,5	-2,552
1753,651	-7,5	-2,661
1764,258	-8,5	-2,739
1774,884	-5	-2,246
1785,509	-3	-1,79
1796,128	-0,5	-1,164
1806,748	0	-0,539
1817,355	1	-0,234
1827,986	2,5	-0,038
1838,6	2,5	-0,014
1849,225	3	-0,008
1859,839	2,5	-0,002
1870,452	2,5	-0,17
1881,071	1	-0,563
1891,685	0	-0,713
1902,298	-1	-1,176
1912,911	-1,5	-1,332
1923,537	-1	-1,307
1934,15	-1,5	-1,383
1944,77	-1,5	-1,441
1955,383	-2	-1,702
1966,003	-2	-1,718
1976,622	-1,5	-1,403
1987,235	-1,5	-1,372
1997,849	-2	-1,645
2008,462	-2	-1,779
2019,082	-3	-1,948
2029,701	-3	-2,16
2040,308	-3,5	-2,291
2050,91	-2,5	-1,94
2061,523	-3	-2,037
2072,142	-2,5	-1,856
2082,756	-2	-1,745
2093,369	-2,5	-1,921
2103,983	-2	-1,757
2114,602	-1,5	-1,458
2125,209	-1	-1,122
2135,829	-1	-1,084
2146,448	-1	-1,131
2157,068	-1,5	-1,358
2167,687	-1,5	-1,437
2178,306	-1,5	-1,606
2188,92	-2	-1,736
2199,533	-1	-1,21
2210,153	1	-0,566
2220,766	2,5	-0,144
2231,385	3	-0,002
2242,011	2,5	-0,013
2252,612	1	-0,241
2263,232	-0,5	-1,073
2273,851	-1	-1,194
2284,47	-2	-1,568
2295,09	-1,5	-1,537
2305,703	-1	-1,244
2316,328	-1,5	-1,534
2326,96	-0,5	-1,074
2337,573	0	-1,026
2348,181	0	-1,029
2358,8	0	-0,604
2369,413	0	-0,662
2380,027	-1	-1,346
2390,646	-5,5	-2,394
2401,26	-3	-1,899
2411,861	-6	-2,479
2422,48	-12,5	-3,237
2433,1	-12	-3,5
2443,719	-12,5	-3,498
2454,339	-12	-3,495
2464,964	-12	-3,498
2475,577	-12	-3,499
2486,185	-12	-3,499
2496,804	-12	-3,426
2507,424	-10,5	-3,078
2518,049	-5,5	-2,464
2528,668	-1,5	-1,608
2539,282	0	-0,915
2549,907	1,5	-0,11
2560,509	3	-0,007
2571,116	2,5	0
2581,735	-0,5	-0,951
2592,349	-2	-1,787
2602,968	-4,5	-2,616
2613,588	-9,5	-3,382
2624,201	-12	-3,492
2634,814	-12	-3,499
2645,416	-9,5	-2,935
2656,035	-5	-2,389
2666,654	-2	-1,683
2677,274	-0,5	-1,136
2687,893	0,5	-0,516
2698,507	2,5	-0,034
2709,126	3	-0,004
2719,733	2,5	0
2730,347	1,5	-0,576
2740,948	-1	-1,044
2751,568	-2	-1,702
2762,181	-3	-2,272
2772,8	-6	-2,997
2783,414	-9	-3,355
2794,027	-12	-3,477
2804,641	-12	-3,496
2815,248	-11,5	-3,499
2825,867	-11	-3,186
2836,487	-7,5	-2,755
2847,112	-3,5	-2,21
2857,72	-2	-1,878
2868,333	-1	-1,51
2878,94	-0,5	-1,198
2889,554	0	-0,989
2900,173	0	-0,501
2910,787	1,5	-0,115
2921,4	2,5	-0,021
2932,013	2,5	-0,006
2942,615	2,5	-0,001
2953,222	2	-0,42
2963,841	0	-0,712
2974,455	-1	-1,346
2985,074	-2	-1,824
2995,694	-3,5	-2,419
3006,301	-6	-3,033
3016,92	-10	-3,429
3027,54	-11	-3,49
3038,147	-10,5	-3,498
3048,761	-10,5	-3,471
3059,374	-7,5	-2,829
3069,987	-4,5	-2,419
3080,601	-3	-1,981
3091,214	-1	-1,46
3101,828	0	-0,74
3112,441	0,5	-0,409
3123,054	2	-0,078
3133,662	3	-0,015
3144,269	3	-0,004
3154,895	3	-0,001
3165,502	2	-0,434
3176,121	0	-0,881
3180,117	3	-0,001