File: ensaios_Ciclicos/_20perc/_4gap/entrada/_1.txt
Time (s)	Load (N)	Displacement (mm)
0	0	-0,034
11,46	-32	-3,492
23,278	3	-0,001
34,492	-20,5	-2,931
88,135	-18,5	-2,405
99,217	2	-0,074
110,37	-4,5	-1,172
121,139	-10	-2,027
131,842	-12	-2,261
143,14	-27	-3,305
153,778	-26	-3,074
164,402	-25	-3,082
174,992	-26	-3,094
185,713	-21	-2,617
196,423	-13,5	-2,104
206,844	-25,5	-2,973
217,133	-25,5	-3,491
227,525	-18	-3,149
238,306	-24,5	-3,458
248,866	-23,5	-3,424
298,147	-21,5	-2,914
308,742	-24	-3,003
318,942	-21	-3,387
329,063	-3	-1,047
339,688	-3	-1,146
349,798	3,5	-0,033
359,799	-18	-2,6
408,732	-7	-1,621
418,764	-24	-3,484
428,771	-0,5	-0,87
438,599	-5	-1,472
448,414	-19,5	-3,36
458,32	4	0
468,267	-5	-1,478
478,046	-16	-3,113
487,814	4	-0,016
498,055	-1,5	-1,027
507,823	-22	-3,438
517,566	4	-0,003
527,256	-22,5	-3,156
537,035	-6	-1,923
546,85	2,5	-0,146
556,594	-23,5	-3,498
566,349	-1,5	-0,921
576,051	-5,5	-1,68
585,782	-14,5	-3,02
632,496	-22	-3,462
642,263	4	0
651,989	-13,5	-2,512
661,678	-4	-1,617
671,452	0	-0,745
681,147	-20,5	-3,415
690,872	4,5	-0,004
700,574	-22,5	-3,5
747,701	-0,5	-0,866
757,432	-18,5	-3,427
767,182	4	-0,004
776,985	-18	-2,884
787,149	-19	-3,381
796,856	4,5	-0,01
806,57	-22	-3,499
816,235	3,5	-0,451
826,008	-7,5	-1,842
835,692	-10	-2,576
845,412	3,5	-0,082
891,951	0	-0,643
901,628	-17	-3,312
911,312	4	-0,041
921,013	-21,5	-3,492
930,72	4,5	-0,002
940,356	-21,5	-3,5
949,991	4,5	-0,213
959,657	-15	-2,552
969,314	-3	-1,475
979,012	-1	-0,979
988,671	-15	-3,164
998,307	2,5	-0,132
1007,936	-20,5	-3,472
1017,596	4,5	-0,004
1027,225	-21,5	-3,499
1036,908	2,5	-0,524
1046,586	-11,5	-2,392
1056,192	-3	-1,466
1065,821	-5	-1,733
1075,45	-8	-2,436
1085,056	0	-0,707
1094,727	-19	-3,413
1104,387	4,5	-0,008
1150,716	1,5	-0,267
1160,351	-20	-3,449
1169,993	4,5	-0,004
1179,616	-21	-3,492
1189,228	3,5	-0,427
1198,857	-12	-2,516
1208,451	-3,5	-1,739
1218,074	-1,5	-1,181
1227,656	-11,5	-2,817
1237,285	1,5	-0,286
1246,927	-20,5	-3,472
1256,538	4,5	-0,003
1266,161	-16,5	-2,88
1275,779	-3	-1,527
1285,426	-1	-0,975
1295,068	-18	-3,408
1304,655	4	-0,019
1314,327	-20,5	-3,499
1323,95	1,5	-0,621
1333,592	-8,5	-2,125
1343,209	-6	-2,214
1352,838	0,5	-0,49
1362,432	-17,5	-3,392
1372,121	4	-0,005
1381,727	-20,5	-3,499
1391,362	0,5	-0,708
1400,926	-11,5	-2,46
1410,513	-3,5	-1,669
1420,089	-3	-1,412
1429,73	-10	-2,781
1439,347	2	-0,166
1448,929	-19	-3,452
1458,564	4	-0,014
1468,236	-20	-3,499
1477,853	4	-0,282
1487,477	-13,5	-2,705
1497,082	-2,5	-1,307
1506,688	-4,5	-1,715
1516,311	-7,5	-2,467
1525,905	0	-0,658
1535,51	-16	-3,336
1545,049	3,5	-0,107
1554,625	-19,5	-3,481
1564,223	4,5	-0,004
1573,811	-20	-3,499
1583,375	3	-0,44
1592,974	-11,5	-2,499
1602,567	-3	-1,591
1612,143	-3,5	-1,59
1621,718	-7,5	-2,501
1631,329	1	-0,4
1640,881	-17	-3,376
1650,504	4	-0,029
1660,086	-19,5	-3,493
1669,637	4,5	-0,002
1679,207	-19,5	-3,499
1688,806	3	-0,418
1698,37	-15	-2,808
1708,017	-3	-1,452
1717,569	-5	-1,796
1727,144	-6,5	-2,347
1736,701	0	-0,685
1746,265	-14	-3,218
1755,816	3,5	-0,108
1765,374	-19	-3,478
1774,937	4,5	-0,012
1784,507	-19,5	-3,496
1794,052	4,5	-0,002
1803,604	-19,5	-3,499
1813,179	4	-0,329
1822,767	-15	-2,754
1832,342	-2	-1,293
1841,87	-6	-1,999
1851,391	-2,5	-1,517
1860,924	-7	-2,002
1870,494	-4	-1,947
1880,039	-2,5	-1,325
1889,597	-7,5	-2,521
1899,148	0	-0,705
1908,712	-13	-3,187
1918,245	2,5	-0,168
1927,796	-18,5	-3,471
1937,324	4,5	-0,032
1946,852	-19,5	-3,484
1956,361	4,5	-0,01
1965,99	-19,5	-3,499
1975,5	4,5	-0,001
1985,027	-19,5	-3,499
1994,573	4	-0,395
2004,088	-16	-2,95
2013,604	0,5	-0,72
2023,167	-9	-2,358
2032,725	-3	-1,568
2042,288	-4,5	-1,635
2051,822	-4,5	-2,032
2061,379	-1,5	-1,26
2070,918	-5,5	-2,326
2080,44	-1,5	-1,316
2089,991	-5,5	-2,361
2099,537	-0,5	-1,024
2109,1	-9,5	-2,795
2118,646	0	-0,611
2128,179	-11	-3,024
2137,773	2	-0,246
2147,306	-13,5	-3,26
2156,875	2,5	-0,147
2166,397	-14,5	-3,309
2175,954	2,5	-0,188
2185,494	-14	-3,256
2195,039	1	-0,412
2204,579	-11	-3,042
2214,106	1	-0,519
2223,628	-10,5	-2,872
2233,203	1,5	-0,353
2242,755	-14	-3,288
2252,312	1,5	-0,277
2261,869	-15	-3,384
2271,421	3,5	-0,07
2280,972	-17,5	-3,454
2290,518	4,5	-0,022
2300,045	-18	-3,482
2309,639	4,5	-0,007
2319,16	-18,5	-3,493
2328,682	4,5	-0,004
2338,233	-18,5	-3,498
2347,761	4,5	-0,002
2357,276	-18,5	-3,499
2366,821	4,5	-0,001
2376,337	-18	-3,499
2385,876	4,5	-0,002
2395,404	-18,5	-3,498
2405,015	4,5	-0,001
2414,573	-18	-3,499
2424,088	4,5	-0,001
2433,622	-18	-3,499
2443,143	4,5	-0,002
2452,67	-17,5	-3,498
2462,186	4,5	-0,002
2471,725	-17,5	-3,498
2481,253	4,5	-0,001
2490,816	-17	-3,5
2500,332	4,5	-0,09
2509,853	-16,5	-3,5
2519,375	4,5	0
2528,884	-15,5	-3,499
2538,424	4,5	-0,023
2547,981	-15	-3,06
2557,533	0	-0,92
2567,072	-6	-2,354
2576,599	-1,5	-1,242
2586,127	-5	-2,238
2595,66	-1,5	-1,408
2605,176	-5,5	-2,26
2614,691	-1,5	-1,494
2624,207	-3	-1,982
2633,746	-3	-1,763
2643,268	-1,5	-1,746
2652,783	-2,5	-1,747
2662,305	-2	-1,86
2671,814	-2,5	-1,727
2681,336	-1,5	-1,78
2690,869	-2	-1,814
2700,396	-0,5	-1,64
2709,966	-4	-2,491
2719,481	0	-0,96
2728,991	-5	-2,745
2738,518	1	-0,651
2748,04	-7,5	-3,095
2757,567	2	-0,236
2767,089	-10	-3,421
2776,634	3,5	-0,058
2786,204	-11	-3,487
2795,725	4,5	-0,007
2805,264	-11	-3,496
2814,798	4,5	-0,002
2824,32	-11	-3,498
2833,835	4,5	0
2843,344	-11	-3,494
2852,854	4,5	-0,174
2862,369	-11	-3,378
2871,909	3	-0,496
2881,448	-6,5	-2,786
2890,975	0	-1,012
2900,503	-2,5	-2,234
2910,018	-0,5	-1,25
2919,54	-2	-2,171
2929,073	-1	-1,556
2938,601	-1	-1,903
2948,128	-1,5	-1,745
2957,644	-1,5	-1,97
2967,159	-1	-1,576
2976,699	-1	-1,93
2986,268	-1,5	-1,792
2995,789	-1	-1,841
3005,317	-1,5	-1,867
3014,832	-0,5	-1,68
3024,432	-2	-2,09
3033,971	0	-1,369
3043,487	-2,5	-2,243
3052,996	0	-1,402
3062,494	-2	-2,045
3071,997	0	-1,54
3081,543	-2	-2,257
3091,076	0	-1,416
3100,585	-1,5	-1,951
3110,131	0	-1,391
3119,646	-2	-2,299
3129,162	0	-1,125
3138,684	-2,5	-2,472
3148,199	1	-0,871
3157,72	-3,5	-2,892
3167,236	1,5	-0,474
3171,891	4,5	0