File: ensaios_Ciclicos/_20perc/_4gap/entrada/_3.txt
Time (s)	Load (N)	Displacement (mm)
0	0	-0,136
1,728	-3,5	-0,243
3,425	-26	-2,573
5,129	-32,5	-3,48
7,331	-32,5	-3,492
9,018	-12	-1,891
10,739	1,5	-0,001
12,389	-8,5	-1,008
14,111	-31,5	-3,207
15,821	-27	-3,362
17,578	-8	-1,456
19,36	2	-0,001
21,149	-2	-0,372
22,786	-29	-3,006
24,442	-26,5	-3,364
26,23	-9	-1,61
27,946	2	-0,002
29,668	-6	-0,872
31,396	-26,5	-2,914
33,076	-28	-3,434
35,242	-29	-3,459
36,988	-9,5	-1,8
38,667	2,5	-0,002
40,335	-6,5	-0,993
42,039	-30	-3,254
43,702	-23	-3,22
129,838	-27,5	-3,498
131,404	-9	-1,888
133,025	3	-0,005
134,668	-8	-1,424
136,276	-27,5	-3,497
137,836	-8	-1,836
139,414	3	-0,007
141,086	-8	-1,464
142,684	-27	-3,497
144,226	-7,5	-1,814
145,839	3	-0,007
147,387	-13,5	-2,034
148,989	-27	-3,486
150,525	-4,5	-1,122
152,145	3	-0,04
153,801	-15	-2,093
155,349	-26	-3,456
156,927	-3,5	-1,015
158,949	2	-0,451
160,497	-2,5	-0,76
162,05	-27	-3,499
163,676	-13,5	-2,516
165,248	3,5	-0,001
166,85	-5,5	-1,198
168,461	-27	-3,499
170,029	-10,5	-2,168
171,644	3	-0,001
173,198	-7	-1,443
174,806	-26,5	-3,496
176,348	-6	-1,66
177,973	3,5	-0,007
179,63	-10	-1,605
181,273	-26,5	-3,498
182,899	-10,5	-2,261
184,507	3,5	-0,002
186,163	-4	-1,063
187,717	-26,5	-3,498
189,313	-10	-2,138
190,903	3,5	-0,003
192,499	-7,5	-1,558
194,089	-26,5	-3,496
195,648	-7	-1,749
197,232	3,5	-0,008
198,9	-7,5	-1,528
200,418	-26	-3,492
201,978	-4	-1,236
203,526	2	-0,08
205,146	-18,5	-2,519
206,73	-23,5	-3,433
208,35	-2,5	-0,966
209,922	1,5	-0,128
211,548	-19	-2,6
213,059	-19,5	-3,14
214,691	0	-0,65
216,215	-1	-0,584
217,751	-26	-3,499
219,317	-11	-2,371
220,841	3,5	-0,003
222,341	-12,5	-2,038
223,853	-24	-3,442
225,845	-17,5	-2,958
227,465	3	-0,35
229,091	0	-0,412
230,644	-26	-3,359
232,198	-14	-2,569
233,782	3	-0,001
235,318	-6	-1,424
236,878	-26	-3,495
238,421	-6	-1,626
240	3,5	-0,016
241,576	-14,5	-2,177
243,148	-24,5	-3,452
244,702	-2,5	-0,908
246,32	2,5	-0,087
247,87	-22	-2,882
249,454	-19,5	-3,247
329,843	2,5	-0,083
331,409	-20	-2,759
332,969	-18,5	-3,193
334,499	3,5	-0,107
335,986	-4,5	-1,289
337,51	-24,5	-3,494
339,07	-5	-1,512
340,583	3	-0,063
342,064	-23	-3,059
343,594	-14,5	-2,717
345,13	3,5	-0,001
346,708	-4,5	-1,279
348,25	-24,5	-3,495
349,78	-4,5	-1,488
351,262	2,5	-0,088
352,731	-24,5	-3,264
354,208	-9,5	-2,298
355,743	3,5	-0,002
357,273	-9	-1,879
358,785	-23,5	-3,459
360,298	0	-0,652
361,832	0	-0,458
363,321	-24,5	-3,499
364,833	-8	-2,035
366,315	3,5	-0,016
367,809	-18	-2,715
407,94	-20	-3,33
409,458	3,5	-0,243
410,94	-3,5	-1,198
412,44	-24	-3,494
413,916	-3,5	-1,243
415,386	1	-0,298
416,874	-24	-3,452
418,374	-8,5	-2,199
419,862	3,5	-0,013
421,35	-19,5	-2,572
422,79	-14,5	-2,8
424,307	3,5	-0,001
425,807	-7	-1,714
427,271	-23	-3,445
428,729	2,5	-0,383
430,223	-2,5	-1,032
431,675	-24	-3,492
433,205	-4,5	-1,333
434,633	0	-0,365
436,109	-24	-3,499
437,573	-6	-1,736
439,043	3	-0,056
440,573	-19,5	-2,884
442,105	-15	-2,935
443,53	4	-0,003
482,642	-10,5	-2,408
484,142	4	-0,005
485,618	-14,5	-2,348
487,082	-16,5	-3,129
488,546	3,5	-0,001
490,016	-7,5	-1,714
491,473	-22,5	-3,451
492,967	2	-0,527
494,467	-1,5	-0,843
495,931	-23,5	-3,496
497,359	-2,5	-1,101
498,811	0	-0,494
500,335	-23,5	-3,5
501,799	-6	-1,943
503,287	3,5	-0,021
504,757	-19,5	-2,759
506,245	-14,5	-2,865
507,733	4	-0,001
509,209	-8,5	-1,808
510,684	-22,5	-3,453
512,136	3	-0,372
513,594	-3,5	-1,153
515,058	-23,5	-3,491
516,516	-1	-0,912
517,987	0	-0,571
519,468	-23,5	-3,499
520,95	-5,5	-1,757
522,426	3,5	-0,032
523,896	-23,5	-3,129
525,366	-9,5	-2,375
526,806	3,5	-0,014
528,258	-19	-2,667
529,721	-13	-2,729
531,191	4	-0,002
532,667	-12	-2,149
534,131	-19	-3,336
535,601	3,5	-0,102
537,053	-5,5	-1,47
538,505	-22,5	-3,471
539,951	3	-0,584
541,415	-3	-1,08
542,855	-23	-3,488
544,319	-1	-0,88
545,74	-1	-0,854
547,18	-23,5	-3,495
548,626	-2	-1,058
550,09	0	-0,482
551,53	-23	-3,498
552,982	-3,5	-1,328
554,488	2	-0,122
555,916	-23	-3,499
668,818	-5	-1,667
670,263	2	-0,107
671,703	-22,5	-3,492
673,173	-6,5	-1,994
674,637	3,5	-0,027
676,065	-22	-3,071
677,547	-9,5	-2,498
678,981	4	-0,009
680,433	-15	-2,582
681,891	-13,5	-2,851
683,349	3,5	-0,002
684,777	-10,5	-2,11
686,24	-18,5	-3,342
687,692	3,5	0
689,138	-6	-1,668
690,59	-21,5	-3,446
692,042	3,5	-0,246
693,488	-4	-1,381
694,958	-22,5	-3,487
696,404	0,5	-0,671
697,85	-1,5	-0,979
699,308	-23	-3,494
700,766	-2	-1,066
702,283	1	-0,24
703,729	-22,5	-3,499
816,462	4	-0,103
817,914	-4,5	-1,469
819,36	-22	-3,47
820,8	1,5	-0,511
822,252	-2	-1,079
823,722	-22	-3,493
825,21	-2	-1,136
826,661	0,5	-0,459
828,119	-22	-3,499
829,613	-5	-1,864
831,078	3,5	-0,04
832,535	-20,5	-3,041
833,999	-9	-2,417
835,451	4	-0,01
836,915	-15	-2,593
838,367	-12,5	-2,809
839,819	4	-0,002
841,259	-10,5	-2,249
842,722	-17	-3,248
844,174	4	-0,001
845,65	-5,5	-1,635
847,108	-21	-3,458
848,554	3	-0,392
850,012	-2,5	-1,144
851,476	-22	-3,492
852,91	-1	-0,838
854,392	0	-0,584
855,856	-22	-3,498
857,314	-3	-1,444
858,76	1,5	-0,205
860,23	-22	-3,492
861,657	-5	-1,818
863,103	3,5	-0,063
864,543	-22	-3,294
865,983	-6	-2,033
867,43	3,5	-0,032
868,911	-18	-2,846
870,375	-10	-2,578
871,833	4	-0,004
873,291	-12,5	-2,377
874,743	-14	-2,956
876,171	4	-0,002
877,635	-9,5	-2,098
879,068	-16	-3,198
880,514	4	-0,001
881,978	-5,5	-1,755
883,43	-19,5	-3,428
884,87	4	-0,221
886,316	-3	-1,358
887,756	-21,5	-3,471
889,196	2,5	-0,488
3187,869	-8,5	-3,454
3189,296	3,5	-0,181
3190,718	-0,5	-1,631
3192,158	-8	-3,438
3193,574	4	-0,041
3195,008	-0,5	-1,644
3196,43	-8	-3,412
3197,858	4	0
3199,286	-0,5	-1,769
3200,708	-7	-3,392
3202,136	4	-0,001
3203,558	-0,5	-1,787
3205,028	-8,5	-3,446
3206,473	4	-0,202
3207,901	0	-1,556
3209,329	-8	-3,442
3210,697	4	-0,001