File: ensaios_Ciclicos/_20perc/_4gap/entrada/_4.txt
Time (s)	Load (N)	Displacement (mm)
329,063	3	-0,028
329,837	-13	-2,628
330,569	-19	-2,657
331,331	3,5	-0,003
332,087	-19	-3,197
332,854	-10,5	-1,886
333,635	3	-0,351
334,396	-25	-3,485
335,189	-1	-0,658
335,962	-4,5	-1,482
336,767	-25,5	-3,456
337,552	3	-0,024
338,302	-12	-2,478
339,094	-16,5	-2,447
339,869	3,5	-0,001
340,642	-23	-3,4
341,471	-3,5	-1,134
342,238	-2,5	-0,932
342,994	-25,5	-3,497
343,726	-0,5	-0,468
344,494	-5	-1,609
345,274	-25,5	-3,365
346,048	3,5	-0,023
346,846	-14,5	-2,784
347,626	-13,5	-2,175
348,364	3,5	-0,001
349,15	-24	-3,44
349,924	-4,5	-1,292
350,68	-1	-0,768
351,478	-25,5	-3,497
352,221	0	-0,488
353,007	-5,5	-1,696
353,769	-25,5	-3,419
354,531	3	-0,033
355,287	-11	-2,416
356,025	-20	-2,765
356,775	3,5	-0,006
357,538	-17	-3,021
358,287	-13,5	-2,205
359,074	3,5	0
359,871	-24,5	-3,47
360,651	-3	-1,034
361,437	-3,5	-1,144
362,217	-25,5	-3,499
363,009	2,5	-0,062
363,777	-10,5	-2,361
364,557	-18,5	-2,583
365,319	3,5	-0,002
366,123	-21	-3,336
366,861	-8,5	-1,738
405,924	1,5	-0,505
406,662	-25	-3,487
407,412	-2,5	-1,016
408,174	-3	-1,001
408,924	-25	-3,498
409,668	0	-0,422
410,43	-5	-1,647
411,193	-25	-3,461
411,936	3	-0,048
412,692	-9,5	-2,318
413,448	-20,5	-2,836
414,192	3,5	-0,008
414,978	-17,5	-3,094
415,734	-10,5	-2,028
416,484	3	0
417,24	-24	-3,443
417,972	-5,5	-1,39
418,716	0,5	-0,56
419,484	-25	-3,492
420,228	-1,5	-0,855
420,996	-3,5	-1,314
421,757	-25	-3,499
422,525	1,5	-0,126
423,275	-7,5	-2
424,037	-23	-3,05
424,781	3,5	-0,015
425,537	-13,5	-2,677
426,311	-13,5	-2,319
427,067	3,5	-0,001
427,793	-20,5	-3,312
428,549	-8	-1,686
429,293	3	-0,284
430,031	-24	-3,473
430,793	-3	-1,201
431,543	-2	-0,852
432,317	-25	-3,496
433,067	0	-0,438
433,847	-5	-1,711
434,585	-25	-3,5
435,353	3	-0,056
436,085	-9	-2,225
436,847	-20,5	-2,85
437,621	3,5	-0,005
438,395	-18,5	-3,174
439,145	-10,5	-1,957
439,9	3,5	-0,005
440,632	-23,5	-3,433
441,376	-5	-1,461
442,156	-0,5	-0,74
442,936	-24,5	-3,496
518,742	-3	-1,192
519,492	-24,5	-3,498
520,236	1	-0,21
520,968	-5,5	-1,786
521,742	-24,5	-3,342
522,474	3,5	-0,035
523,248	-11	-2,45
523,992	-17	-2,662
524,73	3,5	-0,005
525,449	-15	-2,885
526,214	-11,5	-2,148
526,955	3,5	-0,001
527,711	-22,5	-3,427
528,455	-5	-1,49
529,199	2	-0,492
529,937	-24	-3,486
530,681	-3,5	-1,218
531,437	-1	-0,826
532,193	-24	-3,496
532,925	0	-0,624
533,669	-3,5	-1,37
534,407	-24,5	-3,499
535,151	1,5	-0,175
535,883	-5,5	-1,801
536,633	-24	-3,343
537,389	3,5	-0,03
538,133	-10	-2,398
538,883	-18	-2,67
539,615	3,5	-0,006
540,394	-15,5	-3,192
541,127	-9	-1,93
541,871	3,5	-0,072
542,626	-24	-3,463
543,359	-4	-1,296
544,09	0	-0,623
544,834	-24	-3,491
545,566	-1	-0,842
546,298	-2,5	-1,042
547,048	-24,5	-3,498
547,792	0,5	-0,317
548,524	-5	-1,571
549,262	-24,5	-3,499
549,994	2	-0,102
550,732	-7	-2,004
551,464	-23,5	-3,192
552,19	3,5	-0,03
552,934	-10	-2,386
553,666	-17,5	-2,75
554,416	3,5	-0,006
555,148	-15	-2,902
667,09	-15	-3,091
667,821	-10	-2,072
668,559	3,5	0
669,303	-21,5	-3,428
670,035	-5,5	-1,523
670,755	2,5	-0,453
671,499	-23,5	-3,483
672,231	-2,5	-1,084
672,981	-1,5	-0,971
673,719	-24	-3,496
674,451	0	-0,512
675,195	-3,5	-1,51
675,927	-24	-3,499
676,647	1,5	-0,123
677,391	-5,5	-1,941
678,153	-23,5	-3,11
678,897	3,5	-0,017
679,635	-10	-2,538
680,379	-15,5	-2,5
681,123	3,5	-0,004
681,885	-17	-3,198
682,617	-9	-1,99
683,378	3,5	-0,144
684,134	-22,5	-3,469
684,866	-3,5	-1,257
685,616	-0,5	-0,8
686,367	-24	-3,495
687,11	0	-0,552
687,86	-3,5	-1,499
688,61	-23,5	-3,499
689,33	2	-0,125
690,074	-5,5	-1,962
690,806	-23,5	-3,234
691,544	3,5	-0,029
692,276	-9,5	-2,42
693,02	-17,5	-2,72
693,764	4	-0,006
694,484	-13	-2,864
695,252	-10,5	-2,095
695,996	3,5	-0,001
696,728	-19,5	-3,376
697,484	-5,5	-1,586
698,222	3	-0,388
698,972	-23	-3,484
699,722	-1,5	-0,948
700,465	-1,5	-1,018
701,209	-23,5	-3,497
701,941	0	-0,418
702,679	-4	-1,546
703,399	-23,5	-3,499
704,143	2	-0,115
704,887	-5,5	-1,969
705,631	-23,5	-3,172
706,375	3,5	-0,021
707,167	-12,5	-2,805
707,913	-13	-2,308
708,661	3,5	-0,001
709,393	-17,5	-3,29
710,161	-6	-1,638
710,905	3	-0,329
711,637	-23	-3,474
712,381	-2	-1,085
713,113	0	-0,791
713,851	-23,5	-3,494
714,595	0	-0,578
715,327	-3	-1,337
716,065	-23,5	-3,499
716,809	1,5	-0,165
717,54	-5,5	-1,824
718,297	-23,5	-3,292
719,016	3	-0,037
719,76	-8	-2,302
720,51	-18,5	-2,764
721,242	3,5	-0,008
721,998	-14,5	-2,966
722,741	-10,5	-2,126
723,474	3,5	-0,001
724,195	-19,5	-3,346
724,938	-6	-1,688
725,664	3,5	-0,212
726,414	-23	-3,472
727,154	-3	-1,225
727,884	0,5	-0,673
728,61	-23	-3,49
729,378	0	-0,664
730,098	-2,5	-1,225
730,836	-23,5	-3,498
731,574	1	-0,281
732,342	-5	-1,83
733,086	-23,5	-3,328
733,818	3,5	-0,041
734,562	-8,5	-2,355
735,294	-18	-2,808
736,043	3,5	-0,006
736,763	-12	-2,781
737,519	-12,5	-2,304
738,263	3,5	-0,001
738,995	-18,5	-3,31
739,739	-7	-1,769
740,471	3,5	-0,158
3150,395	3,5	-0,033
3151,145	-3	-2,438
3151,865	-6,5	-2,817
3152,598	3,5	-0,009
3153,317	-3,5	-2,733
3154,049	-4	-2,449
3154,769	3,5	-0,003
3155,495	-5	-3,028
3156,215	-3	-2,151
3156,947	4	-0,001
3157,673	-7	-3,33
3158,405	-1	-1,781
3159,125	4	-0,032
3159,851	-9,5	-3,434
3160,571	-0,5	-1,53
3161,303	3	-0,366
3162,023	-10,5	-3,472
3162,743	0	-1,256
3163,475	1,5	-0,684
3164,195	-10,5	-3,49
3164,921	0,5	-0,839
3165,641	0	-1,003
3166,373	-11	-3,496
3167,111	1,5	-0,358
3167,849	-1	-1,565
3168,568	-11	-3,499
3169,3	3	-0,103
3170,027	-1,5	-1,934
3170,758	-10,5	-3,248
3171,478	3,5	-0,039
3172,21	-2	-2,278
3172,93	-8,5	-2,943
3173,656	4	-0,014
3174,376	-3	-2,54
3175,108	-5	-2,613
3175,828	4	-0,006
3176,572	-5	-2,988
3177,292	-3	-2,234
3178,024	3,5	-0,001
3178,744	-7	-3,312
3179,476	-1,5	-1,783
3180,196	3,5	-0,012
3180,916	-9	-3,422
3181,66	0	-1,464
3182,284	3,5	0