File: Cycling_tests/_newS/_4G30/entrada/_4.txt
Time (s)	Load (N)	Displacement (mm)
0	-0,16	-0,032
10,655	1,64	-0,414
21,239	2,52	-0,059
31,846	2,94	-0,181
42,459	2,84	-0,331
53,073	3,54	-0,274
63,656	3,78	-0,08
74,258	4,06	-0,002
84,865	4,26	-0,002
95,466	4,42	-0,003
106,104	4,54	-0,002
116,729	4,7	-0,002
127,342	4,82	-0,002
137,95	4,94	-0,004
148,563	5,02	-0,002
159,183	5,12	-0,002
169,808	5,16	-0,001
180,457	5,22	0
191,089	5,32	0
201,72	5,4	0
212,34	5,5	0
222,959	5,48	-0,23
233,585	4,74	-0,363
244,204	4,88	-0,367
254,835	3,02	-0,657
265,467	3,08	-0,609
276,086	5,4	-0,319
286,717	5,88	-0,144
297,349	5,96	-0,005
307,992	6	0
318,618	6,08	-0,001
329,255	6,16	-0,002
339,886	6,2	-0,002
350,53	6,28	-0,004
361,149	6,32	-0,005
371,804	6,36	-0,003
382,448	6,4	-0,002
393,103	6,44	-0,004
403,753	6,44	-0,002
414,396	6,44	0
425,045	6,44	0
435,695	6,48	0
446,344	6,58	-0,001
456,982	6,62	-0,002
467,649	6,64	-0,002
478,304	6,68	-0,002
488,942	6,72	-0,002
499,597	6,74	-0,002
510,241	6,72	0
520,902	6,72	-0,159
531,539	6,78	0
542,201	6,8	-0,001
552,854	6,82	-0,001
563,494	6,86	-0,001
574,143	6,9	-0,001
584,786	6,94	-0,001
595,448	6,96	-0,001
606,103	6,96	0
616,765	6,96	0
627,414	6,98	-0,049
638,081	6,7	-0,262
648,761	6,98	-0,214
659,404	7,02	-0,12
670,047	7,06	-0,001
680,715	7,08	0
691,388	7,14	-0,001
702,032	7,14	0
712,675	7,12	-0,087
723,318	6,22	-0,424
733,98	3,7	-0,746
744,641	2,3	-0,961
755,291	0,44	-1,134
765,958	-1,72	-1,454
776,601	-0,54	-1,345
787,257	0,38	-1,21
797,93	0,74	-1,092
808,574	4,5	-0,674
819,259	4,68	-0,674
829,914	7,32	-0,126
840,558	7,42	-0,002
851,225	7,42	-0,01
861,863	6,3	-0,068
872,506	4,16	-0,25
883,149	3,96	-0,278
893,805	2,26	-0,518
904,466	-0,2	-0,844
915,133	-2,78	-1,148
925,801	-2,72	-1,249
936,474	-5,72	-1,574
947,148	-9,78	-2,039
957,821	-11,02	-2,201
968,494	-13,24	-2,304
979,15	-15,96	-2,646
989,817	-18,18	-2,906
1000,485	-18,24	-2,918
1011,134	-19,8	-3,089
1021,777	-21,18	-3,214
1032,439	-21,22	-3,474
1043,094	-21,26	-3,499
1053,756	-21,26	-3,499
1064,429	-21,28	-3,498
1075,102	-21,24	-3,498
1085,746	-21,22	-3,498
1096,413	-21	-3,488
1107,068	-20,98	-3,483
1117,718	-20	-3,453
1128,367	-17,9	-3,349
1139,041	-13,4	-3,04
1149,696	-8,5	-2,412
1160,357	-4,46	-1,902
1171,013	1,6	-1,093
1181,686	7,2	-0,34
1192,336	7,76	0
1202,997	7,8	-0,001
1213,652	7,84	-0,002
1224,32	7,86	-0,004
1234,963	7,86	-0,008
1245,625	7,68	-0,024
1256,274	5,32	-0,166
1266,923	4,86	-0,225
1277,579	2,5	-0,656
1288,228	2,58	-0,587
1298,89	1,24	-0,75
1309,527	2,5	-0,597
1320,164	3,5	-0,47
1330,838	4,84	-0,255
1341,481	4,38	-0,343
1352,161	5,36	-0,19
1362,834	6,48	-0,086
1373,477	6,72	-0,082
1384,151	7,64	-0,034
1394,818	7,68	-0,023
1405,491	7,86	-0,012
1416,159	7,86	-0,01
1426,832	7,88	-0,006
1437,5	7,88	-0,007
1448,173	7,88	-0,005
1458,828	7,86	-0,003
1469,502	7,86	-0,003
1480,145	7,88	-0,005
1490,795	7,88	-0,005
1501,45	7,86	-0,003
1512,129	7,82	-0,002
1522,797	7,82	-0,001
1533,44	7,82	-0,001
1544,102	7,78	-0,001
1554,763	7,78	-0,001
1565,436	7,8	-0,001
1576,104	7,74	-0,171
1586,741	7,74	-0,028
1597,408	7,6	-0,331
1608,052	7,74	-0,25
1618,701	7,74	-0,092
1629,357	6,9	-0,375
1640,012	5,48	-0,623
1650,673	2,82	-0,891
1661,317	3,32	-0,91
1671,978	1,82	-1,198
1682,628	0,52	-1,306
1693,271	-1,7	-1,589
1703,92	-4,02	-2,037
1714,57	-4,88	-2,142
1725,195	-4,9	-2,252
1735,851	-5,68	-2,298
1746,488	-5,76	-2,313
1757,119	-6,02	-2,473
1767,757	-7,58	-2,716
1778,394	-8,66	-2,869
1789,062	-9,46	-3,066
1799,717	-9,7	-3,086
1810,402	-11,9	-3,344
1821,058	-13,48	-3,415
1831,719	-14,92	-3,475
1842,368	-15,12	-3,483
1853,018	-15,12	-3,487
1863,661	-15,04	-3,49
1874,323	-15,08	-3,492
1884,972	-15	-3,493
1895,627	-14,98	-3,493
1906,295	-14,92	-3,497
1916,944	-14,82	-3,497
1927,612	-14,74	-3,498
1938,255	-14,58	-3,499
1948,898	-14,5	-3,499
1959,548	-14,36	-3,499
1970,197	-14,3	-3,499
1980,853	-14,22	-3,499
1991,514	-14,14	-3,499
2002,163	-14,1	-3,499
2012,831	-14	-3,5
2023,468	-13,96	-3,499
2034,105	-13,88	-3,495
2044,755	-13,82	-3,3
2055,392	-13,72	-3,256
2066,042	-13,74	-3,206
2076,691	-11,42	-2,92
2087,359	-11,06	-2,859
2098,008	-8,34	-2,709
2108,651	-7,98	-2,638
2119,301	-6,56	-2,403
2129,95	-5,76	-2,339
2140,599	-5,84	-2,286
2151,249	-5,78	-2,312
2161,892	-6,26	-2,341
2172,56	-3,52	-2,044
2183,215	-2,52	-1,768
2193,87	-2,14	-1,689
2204,526	-1,3	-1,596
2215,175	-0,84	-1,432
2225,819	-1,04	-1,519
2236,468	-0,42	-1,386
2247,123	0,06	-1,224
2257,785	0,26	-1,2
2268,458	0,62	-1,1
2279,108	1,4	-0,893
2289,769	1,84	-0,71
2300,436	2,18	-0,705
2311,116	3,16	-0,427
2321,777	3,06	-0,479
2332,426	2,18	-0,637
2343,082	2,36	-0,634
2353,749	3,44	-0,404
2364,387	3,24	-0,31
2375,042	3,74	-0,256
2385,679	3,4	-0,278
2396,347	4,26	-0,224
2406,978	3,2	-0,334
2417,622	3,62	-0,254
2428,295	4,54	-0,146
2438,95	3,46	-0,329
2449,612	2,82	-0,488
2460,267	3,26	-0,362
2470,917	2,96	-0,34
2481,56	3,06	-0,338
2492,215	4,1	-0,15
2502,859	4,7	-0,152
2513,52	4,86	-0,088
2524,188	5,8	-0,061
2534,843	6,34	-0,028
2545,492	6,46	-0,014
2556,16	6,52	-0,014
2566,827	6,2	-0,028
2577,488	4,9	-0,101
2588,138	2,62	-0,526
2598,787	1,38	-0,791
2609,437	1,66	-0,745
2620,098	2,04	-0,624
2630,759	2,18	-0,606
2641,379	2,88	-0,333
2652,022	4,06	-0,168
2662,672	5,38	-0,09
2673,339	6	-0,035
2683,982	6,4	-0,01
2694,644	6,46	-0,004
2705,317	6,42	-0,001
2715,961	6,4	-0,012
2726,61	5,9	-0,284
2737,253	5,58	-0,404
2747,921	3,88	-0,65
2758,57	2,9	-0,91
2769,219	1,22	-1,134
2779,881	-0,4	-1,604
2790,524	-2,22	-2,079
2801,186	-4,02	-2,549
2811,823	-5,36	-2,829
2822,49	-8,14	-3,349
2833,14	-9,56	-3,413
2843,801	-10,74	-3,476
2854,451	-10,9	-3,491
2865,094	-10,98	-3,496
2875,749	-10,98	-3,498
2886,417	-10,94	-3,499
2897,06	-10,94	-3,499
2907,716	-10,92	-3,499
2918,377	-10,86	-3,485
2929,02	-10,84	-3,337
2939,67	-10,42	-3,088
2950,331	-7,58	-2,899
2961,005	-5,86	-2,576
2971,648	-4,38	-2,324
2982,297	-3,52	-2,148
2992,941	-2,4	-1,885
3003,59	-0,78	-1,529
3014,251	-0,4	-1,346
3024,895	0	-1,238
3035,55	0,8	-1,011
3046,206	1,48	-0,815
3056,867	2,06	-0,558
3067,498	3,04	-0,247
3078,142	4,14	-0,122
3088,797	5,3	-0,047
3099,447	6	-0,016
3110,09	6,12	-0,005
3120,733	6,1	-0,002
3131,365	6,1	-0,001
3142,014	6,08	0
3152,664	6,04	-0,163
3163,301	5,54	-0,375
3173,944	3,7	-0,664
3184,606	0,76	-1,293
3192,783	6,04	-0,001