File: Cycling_tests/com_TC/entrada/_1.txt
Time (s)	Load (N)	Displacement (mm)
0	0	-0,037
10,6	3	-0,009
21,16	-2	-0,281
31,713	-10	-1,104
42,267	-22	-2,205
52,844	-26	-2,464
63,403	-23,5	-2,298
73,975	-21	-2,102
84,522	-17	-1,766
95,088	-16,5	-1,84
105,653	-21	-1,994
116,224	-21,5	-2,097
126,784	-25	-2,632
137,343	-34	-3,007
147,92	-34,5	-3,488
158,498	-34,5	-3,497
169,075	-33	-3,472
179,653	-24	-3,257
190,224	-20	-2,685
200,789	-11	-1,914
211,373	-3,5	-1,026
221,95	0,5	-0,629
232,522	3,5	-0,001
243,099	3	-0,047
253,652	-5,5	-0,914
264,242	-18,5	-2,114
274,831	-30,5	-3,105
285,403	-31	-3,498
295,992	-30,5	-3,478
306,599	-22,5	-3,091
317,201	-19,5	-2,808
327,784	-14	-2,325
338,368	-6	-1,447
348,945	-1	-0,758
359,528	3,5	0
370,112	4	-0,002
380,695	3,5	-0,006
391,267	3,5	-0,048
401,844	3,5	-0,054
412,439	-0,5	-0,385
423,017	-3	-0,696
433,594	-2,5	-0,679
444,178	-7,5	-1,317
454,767	-14	-1,925
465,362	-17	-2,232
475,958	-23	-2,699
486,541	-29	-3,432
497,143	-29	-3,498
507,726	-29,5	-3,496
518,297	-29	-3,484
528,899	-28	-3,45
539,488	-27	-3,429
550,077	-28	-3,448
560,685	-28	-3,455
571,268	-27,5	-3,453
581,846	-24,5	-3,42
592,453	-27	-3,428
603,043	-20	-3,168
613,626	-17,5	-2,781
624,221	-16,5	-2,792
634,811	-20	-2,945
645,388	-23	-3,261
655,977	-23	-3,251
666,579	-25	-3,356
677,162	-24	-3,333
687,758	-26,5	-3,436
698,341	-23,5	-3,339
708,924	-17,5	-2,791
719,526	-19	-2,928
730,121	-18	-2,941
740,717	-17	-2,831
751,3	-16,5	-2,84
761,895	-15	-2,688
772,485	-18	-2,872
783,068	-21	-3,154
793,646	-19	-2,976
804,229	-15	-2,682
814,818	-16	-2,677
825,408	-16,5	-2,801
835,991	-19	-2,999
846,569	-20	-3,107
857,158	-18,5	-2,897
867,729	-14	-2,667
878,307	-20	-3,131
888,896	-21,5	-3,177
899,468	-20	-3,096
910,051	-22	-3,349
920,646	-25,5	-3,448
931,242	-27,5	-3,492
941,825	-27,5	-3,496
952,409	-27,5	-3,498
962,986	-27,5	-3,499
973,575	-27	-3,456
984,153	-27,5	-3,499
994,736	-27	-3,258
1005,32	-26	-3,1
1015,897	-26	-3,12
1026,474	-26,5	-3,178
1037,052	-27	-3,323
1047,641	-26,5	-3,112
1058,23	-27	-3,498
1068,82	-27	-3,498
1079,409	-27	-3,5
1090,011	-27	-3,185
1100,594	-27	-3,322
1111,183	-27	-3,5
1121,773	-27	-3,498
1132,362	-27	-3,493
1142,946	-26	-3,457
1153,523	-23,5	-3,355
1164,124	-23,5	-3,429
1174,72	-26	-3,464
1185,297	-26	-3,478
1195,887	-27	-3,494
1206,47	-27	-3,497
1217,053	-26,5	-3,5
1227,631	-25,5	-3,056
1238,208	-21,5	-2,735
1248,792	-19	-2,58
1259,375	-15	-2,32
1269,97	-11,5	-2,01
1280,536	-13	-2,085
1291,125	-9,5	-1,784
1301,697	-5,5	-1,359
1312,292	-2,5	-0,885
1322,869	-1	-0,681
1333,453	1	-0,202
1344,024	3	-0,069
1354,608	4	-0,032
1365,203	3,5	-0,035
1375,786	4	-0,019
1386,37	4	-0,012
1396,953	4,5	-0,006
1407,555	4,5	-0,004
1418,132	4,5	-0,004
1428,721	4,5	-0,014
1439,311	4	-0,03
1449,882	4	-0,015
1460,465	4,5	-0,006
1471,043	4,5	-0,002
1481,614	4	0
1492,198	3,5	-0,304
1502,781	-1	-0,79
1513,364	-3,5	-1,279
1523,954	-5	-1,649
1534,525	-7,5	-2,004
1545,097	-12	-2,523
1555,686	-13,5	-2,812
1566,269	-17	-3,064
1576,853	-23	-3,383
1587,442	-24,5	-3,459
1598,032	-25	-3,474
1608,609	-25	-3,488
1619,18	-25	-3,496
1629,758	-25	-3,499
1640,359	-25	-3,499
1650,931	-25	-3,489
1661,496	-25	-3,352
1672,073	-25	-3,222
1682,663	-21	-2,816
1693,234	-20,5	-2,801
1703,818	-19	-2,659
1714,407	-14,5	-2,357
1725,002	-14	-2,383
1735,58	-13,5	-2,311
1746,169	-10	-2,005
1756,747	-8	-1,823
1767,324	-4,5	-1,484
1777,901	-4,5	-1,409
1788,479	-4,5	-1,424
1799,056	-4,5	-1,49
1809,628	-3,5	-1,248
1820,199	-2	-0,984
1830,776	-1,5	-0,918
1841,354	-0,5	-0,72
1851,931	0	-0,409
1862,509	1,5	-0,156
1873,08	3	-0,093
1883,663	4	-0,03
1894,247	4,5	-0,012
1904,818	4,5	-0,011
1915,395	4,5	-0,004
1925,967	4,5	-0,003
1936,532	4,5	-0,002
1947,11	4,5	-0,003
1957,693	4,5	-0,001
1968,27	4,5	-0,001
1978,836	4,5	-0,001
1989,413	4,5	0
1999,985	4,5	-0,194
2010,55	4,5	-0,175
2021,127	3	-0,429
2031,693	1,5	-0,626
2042,27	-0,5	-0,856
2052,848	-1,5	-1,146
2063,437	-3	-1,637
2074,02	-5	-2,086
2084,604	-8	-2,649
2095,181	-11	-3,123
2105,753	-14	-3,359
2116,318	-16,5	-3,46
2126,889	-17	-3,488
2137,449	-16,5	-3,497
2148,02	-16,5	-3,5
2158,592	-16	-3,162
2169,163	-13,5	-2,94
2179,74	-9,5	-2,625
2190,312	-8	-2,545
2200,883	-5	-2,09
2211,461	-3,5	-1,854
2222,038	-1,5	-1,469
2232,615	-0,5	-1,202
2243,193	0	-0,934
2253,776	0	-0,774
2264,354	1,5	-0,439
2274,931	3	-0,148
2285,508	4,5	-0,027
2296,08	4,5	-0,005
2306,657	4,5	-0,002
2317,235	4,5	0
2327,812	4,5	-0,179
2338,383	4	-0,248
2348,961	3	-0,519
2359,532	2,5	-0,527
2370,11	3,5	-0,45
2380,687	0,5	-0,739
2391,264	-0,5	-1,034
2401,83	-1,5	-1,388
2412,401	-2,5	-1,766
2422,973	-3	-1,934
2433,55	-4,5	-2,467
2444,127	-5,5	-2,634
2454,705	-5	-2,535
2465,276	-4,5	-2,501
2475,841	-3,5	-2,221
2486,419	-3	-2,041
2497,002	-2	-1,744
2507,586	-2	-1,627
2518,163	-1,5	-1,426
2528,734	-1	-1,255
2539,306	-0,5	-1,083
2549,883	-1	-1,128
2560,461	-1	-1,204
2571,026	0	-0,891
2581,603	-0,5	-1,121
2592,169	-1	-1,521
2602,758	-2,5	-2,002
2613,336	-3,5	-2,366
2623,919	-5	-2,828
2634,502	-8	-3,272
2645,098	-11,5	-3,445
2655,663	-12,5	-3,481
2666,241	-12,5	-3,491
2676,83	-12,5	-3,498
2687,419	-12,5	-3,499
2697,991	-12	-3,163
2708,568	-7,5	-2,857
2719,158	-5,5	-2,674
2729,741	-2,5	-2,157
2740,33	-1	-1,782
2750,902	0	-1,544
2761,485	0,5	-0,858
2772,063	1,5	-0,52
2782,646	2	-0,243
2793,229	3,5	-0,072
2803,807	4	-0,029
2814,384	4,5	-0,011
2824,962	4,5	-0,004
2835,539	4,5	-0,002
2846,122	4,5	0
2856,706	4,5	-0,152
2867,277	3,5	-0,368
2877,848	0	-0,82
2888,432	-0,5	-1,155
2899,009	-1,5	-1,716
2909,587	-2,5	-2,211
2920,164	-4,5	-2,862
2930,747	-7	-3,261
2941,337	-7	-3,304
2951,908	-8,5	-3,383
2962,486	-10	-3,447
2973,069	-10,5	-3,486
2983,658	-10,5	-3,498
2994,242	-10,5	-3,479
3004,813	-8	-3,031
3015,385	-7	-2,98
3025,968	-5,5	-2,81
3036,539	-5	-2,864
3047,117	-6	-2,926
3057,7	-8,5	-3,097
3068,266	-7,5	-3,022
3078,855	-4	-2,72
3089,438	-2	-2,364
3100,016	-1,5	-2,235
3110,593	0	-1,834
3121,165	0	-1,431
3131,754	1,5	-0,699
3142,325	2	-0,239
3152,897	3,5	-0,074
3163,474	4	-0,014
3169,888	4,5	-0,001