File: Cycling_tests/com_TC/entrada/_3.txt
Time (s)	Load (N)	Displacement (mm)
0	0	-0,036
10,606	1,5	0
21,118	1,5	-0,002
31,647	2	-0,005
42,158	2,5	-0,007
52,688	2,5	-0,005
63,229	2,5	-0,005
73,843	2,5	-0,004
84,384	2,5	-0,01
94,907	2,5	-0,027
105,455	1,5	-0,057
115,996	2	-0,054
126,537	2	-0,048
137,091	2	-0,03
147,68	2,5	-0,02
158,234	2,5	-0,035
168,805	3	-0,025
179,358	2	-0,035
189,93	2,5	-0,027
200,519	3	-0,013
211,079	3	-0,015
221,638	3	-0,012
232,185	3	-0,014
242,751	3	-0,02
253,316	3	-0,017
263,906	3	-0,015
274,471	3	-0,01
285,054	3,5	-0,004
295,632	3,5	-0,004
306,215	3,5	-0,004
316,775	3,5	-0,012
327,346	3,5	-0,005
337,947	3,5	-0,002
348,525	3,5	-0,001
359,09	3	-0,002
369,674	3	-0,001
380,245	3,5	-0,006
390,816	3,5	-0,006
401,388	3,5	-0,001
411,971	1	-0,494
422,543	-3,5	-1,024
433,12	-5	-1,26
443,703	-8,5	-1,776
454,275	-10	-1,944
464,858	-10	-1,95
475,417	-9,5	-1,882
485,983	-10,5	-2,075
496,554	-14	-2,381
507,126	-19	-2,837
517,709	-23	-3,208
528,293	-27,5	-3,429
538,876	-29,5	-3,491
549,441	-29,5	-3,497
560,019	-29,5	-3,499
570,578	-29	-3,242
581,143	-22,5	-2,711
591,715	-18	-2,186
602,292	-11	-1,642
612,864	-5,5	-1,144
623,441	-3	-0,775
634,024	0	-0,255
644,59	1,5	-0,108
655,155	3,5	-0,021
665,727	3,5	-0,008
676,37	3,5	-0,001
686,947	3,5	-0,057
697,507	3,5	-0,179
708,084	3,5	-0,247
718,662	2,5	-0,395
729,221	0	-0,668
739,78	-1,5	-0,793
750,34	-2	-0,833
760,917	-4,5	-1,266
771,471	-6	-1,446
782,048	-8	-1,739
792,637	-9,5	-1,934
803,197	-10,5	-2,161
813,756	-13	-2,449
824,322	-15,5	-2,732
834,881	-20,5	-3,088
845,446	-24,5	-3,371
856,006	-27	-3,454
866,565	-28	-3,49
877,137	-28	-3,494
887,702	-28,5	-3,498
898,261	-28	-3,5
908,827	-28	-3,214
919,392	-24,5	-2,915
929,964	-19,5	-2,448
940,523	-13,5	-1,989
951,082	-11	-1,661
961,66	-5,5	-1,176
972,225	-4,5	-0,974
982,778	-3	-0,895
993,344	-3	-0,772
1003,897	-2,5	-0,778
1014,463	-3	-0,815
1025,04	-1,5	-0,536
1035,587	-1	-0,44
1046,147	-3	-0,784
1056,706	-4	-0,952
1067,26	-4,5	-1,044
1077,825	-5	-1,129
1088,384	-6,5	-1,291
1098,956	-4,5	-1,054
1109,533	-2	-0,664
1120,099	0	-0,222
1130,664	2	-0,109
1141,223	3	-0,046
1151,789	3,5	-0,014
1162,354	3,5	-0,009
1172,926	4	-0,006
1183,485	3,5	-0,006
1194,038	3,5	-0,006
1204,604	4	-0,004
1215,175	3,5	-0,003
1225,735	3,5	-0,001
1236,288	3,5	-0,002
1246,847	4	-0,001
1257,401	3,5	-0,052
1267,948	3	-0,354
1278,508	0	-0,627
1289,061	0,5	-0,6
1299,626	0	-0,744
1310,204	-2	-0,97
1320,769	-2,5	-1,038
1331,329	-2,5	-1,02
1341,894	-4	-1,286
1352,453	-4,5	-1,432
1363,031	-5,5	-1,54
1373,584	-5,5	-1,608
1384,15	-5,5	-1,63
1394,715	-5	-1,545
1405,292	-4,5	-1,467
1415,846	-5	-1,546
1426,405	-4,5	-1,367
1436,965	-3,5	-1,263
1447,53	-3	-1,131
1458,083	-1,5	-0,863
1468,637	-2,5	-1,032
1479,208	-4,5	-1,436
1489,768	-5,5	-1,671
1500,327	-6	-1,747
1510,88	-10	-2,219
1521,428	-9	-2,178
1531,987	-10	-2,297
1542,535	-9,5	-2,268
1553,082	-12	-2,458
1563,647	-12	-2,48
1574,207	-12	-2,445
1584,766	-11,5	-2,452
1595,325	-12,5	-2,557
1605,885	-12,5	-2,558
1616,438	-12	-2,477
1626,986	-10,5	-2,372
1637,545	-10	-2,342
1648,104	-8,5	-2,132
1658,658	-7,5	-2,019
1669,217	-9	-2,164
1679,771	-9	-2,121
1690,336	-7	-1,908
1700,901	-5	-1,59
1711,461	-3	-1,152
1722,02	-0,5	-0,743
1732,58	4	-0,142
1743,139	4	-0,001
1753,692	4	-0,001
1764,246	4	-0,002
1774,805	4	-0,002
1785,371	4	-0,011
1795,918	3,5	-0,035
1806,471	0,5	-0,23
1817,025	-1	-0,686
1827,59	-2	-0,924
1838,15	-3	-1,11
1848,697	-4,5	-1,348
1859,256	-5,5	-1,462
1869,816	-6	-1,561
1880,381	-5,5	-1,603
1890,935	-5,5	-1,525
1901,488	-4,5	-1,37
1912,047	-6	-1,64
1922,613	-6	-1,836
1933,16	-8,5	-2,164
1943,714	-11	-2,475
1954,267	-12	-2,566
1964,826	-14,5	-2,824
1975,386	-17	-3,036
1985,933	-14	-2,855
1996,487	-13,5	-2,754
2007,052	-12,5	-2,785
2017,605	-16,5	-3,026
2028,159	-15	-2,947
2038,706	-14,5	-2,974
2049,248	-17,5	-3,456
2059,813	-17,5	-3,5
2070,372	-17,5	-3,499
2080,932	-17,5	-3,499
2091,491	-17,5	-3,498
2102,045	-17	-3,498
2112,598	-17,5	-3,499
2123,151	-17	-3,499
2133,711	-17	-3,5
2144,252	-17	-3,499
2154,806	-17	-3,499
2165,371	-16,5	-3,499
2175,942	-16,5	-3,445
2186,496	-16,5	-3,497
2197,049	-16,5	-3,499
2207,627	-16	-3,499
2218,18	-16	-3,498
2228,739	-16	-3,499
2239,281	-16,5	-3,498
2249,834	-16,5	-3,497
2260,387	-15,5	-3,495
2270,953	-15	-3,494
2281,5	-15	-3,485
2292,054	-15	-3,473
2302,607	-15	-3,487
2313,161	-15	-3,468
2323,72	-14,5	-3,456
2334,267	-14	-3,464
2344,827	-14,5	-3,468
2355,38	-14,5	-3,481
2365,94	-14,5	-3,486
2376,487	-14,5	-3,482
2387,04	-14,5	-3,482
2397,6	-14,5	-3,49
2408,147	-14	-3,491
2418,706	-14	-3,488
2429,272	-13,5	-3,497
2439,837	-13,5	-3,499
2450,385	-13,5	-3,499
2460,944	-13	-3,488
2471,503	-13	-3,426
2482,135	-8	-2,824
2492,688	-6,5	-2,645
2503,254	-5,5	-2,564
2513,813	-3,5	-2,266
2524,366	-2,5	-2
2534,926	-1,5	-1,844
2545,485	-1	-1,634
2556,051	-0,5	-1,56
2566,61	0	-1,382
2577,169	0	-1,258
2587,729	-0,5	-1,473
2598,288	-0,5	-1,439
2608,842	0	-1,483
2619,419	0	-1,514
2629,984	0	-1,449
2640,538	0	-1,47
2651,097	0	-1,363
2661,651	0	-1,411
2672,21	0	-1,194
2682,757	0	-1,048
2693,299	0,5	-0,848
2703,87	0,5	-0,818
2714,43	0	-1,082
2724,983	0	-1,471
2735,536	-2,5	-2,173
2746,102	-4	-2,549
2756,655	-5,5	-2,7
2767,203	-5,5	-2,795
2777,768	-6,5	-2,784
2788,315	-9	-2,949
2798,875	-8,5	-2,893
2809,434	-11,5	-3,115
2820,006	-8,5	-2,95
2830,565	-11	-3,14
2841,13	-11,5	-3,183
2851,69	-11,5	-3,17
2862,243	-11,5	-3,182
2872,796	-11	-3,222
2883,368	-11,5	-3,268
2893,927	-11,5	-3,199
2904,481	-11,5	-3,35
2915,04	-11,5	-3,5
2925,588	-11,5	-3,499
2936,153	-11,5	-3,496
2946,7	-11,5	-3,489
2957,254	-11	-3,467
2967,813	-10	-3,424
2978,366	-7,5	-3,322
2988,926	-8,5	-3,362
2999,485	-6	-3,151
3010,045	-4,5	-2,924
3020,604	-5,5	-3,042
3031,151	-4	-2,896
3041,705	-4	-2,778
3052,264	-2,5	-2,466
3062,824	-1,5	-1,952
3073,455	-2	-2,181
3084,032	-1,5	-1,901
3094,592	-1	-1,596
3105,151	-1,5	-1,716
3115,711	-1,5	-1,89
3126,282	-1,5	-1,923
3136,847	-1,5	-2,008
3147,407	-1,5	-1,904
3157,96	-1,5	-1,837
3166,06	4	-0,001