File: Cycling_tests/com_TC/entrada/_5.txt
Time (s)	Load (N)	Displacement (mm)
0	0	-0,036
10,655	-0,5	-0,542
21,22	0,5	-0,462
31,78	2,5	-0,223
42,351	2,5	0
52,928	3	0
63,524	3	-0,001
74,113	3	-0,001
84,697	3	-0,003
95,28	3	-0,004
105,863	3	-0,011
116,465	3	-0,009
127,048	3	-0,016
137,632	3	-0,018
148,215	3	-0,024
158,798	2,5	-0,052
169,406	2	-0,067
180,007	3	-0,032
190,608	3	-0,034
201,21	3,5	-0,015
211,788	3	-0,015
222,377	3	-0,022
232,99	3,5	-0,014
243,591	3,5	-0,014
254,205	3,5	-0,004
264,818	3,5	-0,003
275,432	3,5	-0,002
286,045	3,5	-0,004
296,658	3,5	-0,002
307,272	3,5	-0,002
317,903	3,5	0
328,499	3,5	-0,195
339,13	0	-0,684
349,749	-4,5	-1,136
360,363	-8	-1,716
370,97	-12	-2,212
381,571	-16	-2,516
392,173	-15,5	-2,483
402,81	-22,5	-3,136
413,418	-27	-3,418
424,037	-28,5	-3,468
434,668	-29,5	-3,492
445,264	-29,5	-3,492
455,865	-29	-3,492
466,473	-29,5	-3,496
477,098	-29,5	-3,498
487,723	-29	-3,298
498,331	-23,5	-2,758
508,938	-17	-2,154
519,552	-10,5	-1,605
530,171	-5	-1,036
540,778	-2	-0,582
551,398	1	-0,128
562,017	3,5	-0,025
572,631	4	-0,006
583,256	3,5	-0,001
593,863	3,5	-0,29
604,477	-1,5	-0,735
615,084	-3	-1,02
625,704	-5,5	-1,466
636,323	-11,5	-2,167
646,942	-16	-2,645
657,562	-22,5	-3,25
668,175	-25,5	-3,382
678,788	-28	-3,479
689,408	-28,5	-3,496
700,027	-28,5	-3,499
710,653	-28,5	-3,056
721,272	-19,5	-2,566
731,891	-9	-1,621
742,505	-3	-0,859
753,112	1	-0,203
763,738	3,5	-0,022
774,363	4	-0,002
784,982	3,5	-0,148
795,608	0,5	-0,615
806,221	-3	-1,121
816,841	-5	-1,551
827,46	-6,5	-1,806
838,091	-11,5	-2,337
848,693	-17	-2,87
859,318	-20,5	-3,211
869,932	-23	-3,348
880,545	-25	-3,417
891,158	-26,5	-3,467
901,772	-25	-3,424
912,385	-27	-3,482
922,987	-27	-3,487
933,606	-27,5	-3,498
944,213	-27	-3,499
954,833	-27	-3,231
965,458	-18	-2,384
976,065	-10,5	-1,802
986,679	-7,5	-1,524
997,286	-5	-1,203
1007,894	-3	-0,949
1018,501	-2	-0,744
1029,114	-2	-0,749
1039,728	-2,5	-0,721
1050,347	-1	-0,479
1060,961	0,5	-0,219
1071,568	1,5	-0,143
1082,169	3	-0,069
1092,783	3,5	-0,043
1103,39	3,5	-0,039
1113,992	3,5	-0,023
1124,593	4	-0,01
1135,2	3,5	-0,004
1145,814	4	-0,001
1156,415	4	-0,023
1167,023	3	-0,264
1177,63	-0,5	-0,758
1188,249	-4	-1,252
1198,869	-6	-1,661
1209,482	-8,5	-2,024
1220,102	-15	-2,677
1230,715	-17,5	-3,12
1241,304	-18	-3,081
1251,918	-19,5	-3,335
1262,525	-24,5	-3,458
1273,127	-26	-3,486
1283,74	-26,5	-3,496
1294,335	-26,5	-3,498
1304,931	-26,5	-3,499
1315,532	-26,5	-3,45
1326,152	-23,5	-3,041
1336,765	-19	-2,561
1347,372	-12,5	-2,101
1357,98	-10	-1,848
1368,575	-7	-1,521
1379,182	-5,5	-1,322
1389,778	-4,5	-1,183
1400,397	-3	-0,901
1411,005	-1,5	-0,659
1421,594	-0,5	-0,55
1432,195	-0,5	-0,433
1442,809	2	-0,13
1453,41	2,5	-0,084
1464	3	-0,047
1474,607	3,5	-0,029
1485,214	3,5	-0,013
1495,816	4	-0,013
1506,411	4	-0,009
1517,013	4	-0,005
1527,62	4	-0,005
1538,221	4	-0,01
1548,823	4	-0,01
1559,43	4	-0,007
1570,026	4	-0,005
1580,615	4	-0,003
1591,216	4	-0,002
1601,83	4	-0,001
1612,431	4	-0,001
1623,033	4	-0,096
1633,64	3,5	-0,294
1644,235	1,5	-0,51
1654,837	0	-0,696
1665,444	-1	-0,852
1676,045	0	-0,725
1686,665	0	-0,708
1697,266	0,5	-0,627
1707,874	0,5	-0,592
1718,475	0	-0,62
1729,076	2,5	-0,438
1739,678	0,5	-0,608
1750,279	1,5	-0,544
1760,881	0	-0,666
1771,476	2,5	-0,535
1782,083	3,5	-0,302
1792,703	4	-0,001
1803,316	4	-0,008
1813,924	3,5	-0,023
1824,519	2	-0,091
1835,12	-1,5	-0,785
1845,722	-7,5	-1,775
1856,317	-18	-2,725
1866,907	-24	-3,479
1877,508	-24	-3,499
1888,103	-24	-3,498
1898,711	-24	-3,494
1909,318	-24	-3,491
1919,92	-23,5	-3,476
1930,515	-23,5	-3,477
1941,116	-23	-3,469
1951,718	-22	-3,454
1962,331	-22	-3,449
1972,945	-21	-3,431
1983,552	-20,5	-3,405
1994,147	-18,5	-3,383
2004,755	-19	-3,397
2015,356	-15,5	-3,328
2025,964	-18,5	-3,402
2036,571	-19,5	-3,442
2047,178	-17,5	-3,399
2057,774	-18,5	-3,435
2068,369	-18,5	-3,454
2078,958	-18	-3,475
2089,548	-18	-3,492
2100,155	-18	-3,498
2110,763	-17	-3,499
2121,358	-17	-3,361
2131,965	-14	-3,02
2142,579	-10,5	-2,721
2153,174	-8	-2,495
2163,788	-6	-2,335
2174,395	-4,5	-2,109
2184,991	-4,5	-2,108
2195,598	-3,5	-1,999
2206,193	-3	-1,854
2216,783	-3	-1,808
2227,372	-3	-1,852
2237,973	-1,5	-1,756
2248,593	-1	-1,587
2259,194	-1,5	-1,63
2269,784	-2,5	-1,718
2280,385	-2,5	-1,713
2290,998	-2	-1,758
2301,6	-2,5	-1,78
2312,195	-2	-1,768
2322,797	-2,5	-1,885
2333,404	-4,5	-2,185
2344,005	-5	-2,293
2354,613	-4	-2,253
2365,214	-5	-2,454
2375,822	-7	-2,628
2386,441	-7	-2,649
2397,054	-8	-2,86
2407,662	-10	-2,938
2418,269	-8	-2,898
2428,888	-7,5	-2,808
2439,514	-7,5	-2,811
2450,115	-12	-3,147
2460,717	-12	-3,256
2471,312	-12	-3,414
2481,913	-12	-3,47
2492,527	-12	-3,28
2503,134	-12	-3,432
2513,736	-11,5	-3,42
2524,355	-8,5	-3,02
2534,962	-5,5	-2,693
2545,552	-4	-2,498
2556,171	-1,5	-2,041
2566,767	-1	-1,87
2577,362	0	-1,634
2587,963	0	-1,305
2598,571	0,5	-1,131
2609,166	0,5	-1,035
2619,768	0,5	-1,054
2630,369	0	-1,284
2640,97	0	-1,318
2651,584	0,5	-1,248
2662,179	0,5	-1,225
2672,775	0,5	-1,18
2683,382	0,5	-1,13
2693,983	0,5	-1,173
2704,585	1	-1,056
2715,198	0,5	-1,071
2725,806	0,5	-1,319
2736,413	0	-1,571
2747,014	-1	-2,064
2757,622	-2	-2,345
2768,217	-7	-2,885
2778,813	-10,5	-3,274
2789,414	-10,5	-3,499
2800,027	-10,5	-3,496
2810,635	-10,5	-3,492
2821,248	-10,5	-3,481
2831,855	-8,5	-3,426
2842,457	-4,5	-3,091
2853,052	-3,5	-2,765
2863,666	-4	-2,846
2874,273	-3	-2,79
2884,874	-3	-2,603
2895,482	-2,5	-2,415
2906,095	-2,5	-2,422
2916,691	-2,5	-2,342
2927,304	-1	-1,663
2937,899	-0,5	-1,101
2948,501	1	-0,692
2959,108	3,5	-0,343
2969,716	4	-0,187
2980,329	4	-0,018
2990,924	4	-0,001
3001,526	4	-0,001
3012,121	4	-0,002
3022,723	4	-0,004
3033,336	4	-0,003
3043,937	4	-0,001
3054,545	4	-0,002
3065,152	4	-0,002
3075,76	4	-0,001
3086,361	4	-0,001
3096,968	4	-0,001
3107,558	4	-0,001
3118,165	4	-0,001
3128,772	4	-0,001
3139,38	4	-0,001
3149,981	4	-0,001
3160,583	4	0
3171,19	4	-0,064
3175,408	4	0