File: Cycling_tests/com_TC/entrada/_6.txt
Time (s)	Load (N)	Displacement (mm)
0	0	-0,029
10,817	1,5	0
21,544	2	-0,002
32,283	2,5	-0,004
43,011	2,5	-0,004
53,75	2	-0,003
64,501	2,5	-0,002
75,247	3	-0,003
86,004	2,5	-0,002
96,768	2,5	-0,001
107,507	3	-0,001
118,252	3	-0,001
129,016	3	0
139,779	3	-0,152
150,549	1,5	-0,366
161,33	2	-0,395
172,075	2,5	-0,352
182,839	2,5	-0,339
193,602	1,5	-0,442
204,371	1,5	-0,395
215,129	2,5	-0,328
225,904	1	-0,438
236,697	0,5	-0,547
247,467	2	-0,445
258,236	2,5	-0,359
269,024	1,5	-0,428
279,805	0,5	-0,546
290,598	-1	-0,783
301,386	-3	-0,947
312,179	-4,5	-1,109
322,985	-7,5	-1,591
333,796	-11	-1,982
344,595	-16,5	-2,488
355,377	-19,5	-2,787
366,17	-22	-3,104
376,957	-24	-3,254
387,763	-28,5	-3,451
398,526	-29,5	-3,473
409,344	-29,5	-3,492
420,143	-30	-3,497
430,93	-29,5	-3,497
441,742	-29,5	-3,498
452,547	-29,5	-3,499
463,34	-29,5	-3,223
474,146	-23,5	-2,712
484,939	-21	-2,487
495,739	-19	-2,32
506,532	-15	-2,068
517,313	-14	-1,929
528,101	-14	-1,893
538,894	-13,5	-1,874
549,676	-9	-1,506
560,457	-7	-1,239
571,232	-7	-1,258
582,02	-3	-0,705
592,807	0,5	-0,202
603,588	2	-0,084
614,382	3,5	-0,015
625,175	3,5	-0,004
635,963	3,5	-0,001
646,774	3,5	-0,237
657,561	0	-0,649
668,331	-3	-0,993
679,124	-5,5	-1,406
689,906	-7,5	-1,737
700,687	-10	-2,041
711,468	-13	-2,377
722,262	-15,5	-2,619
733,037	-19,5	-3,073
743,819	-21,5	-3,253
754,618	-27	-3,466
765,405	-27	-3,48
776,205	-26,5	-3,455
786,98	-27	-3,479
797,773	-27,5	-3,482
808,555	-26,5	-3,464
819,354	-27	-3,464
830,129	-26,5	-3,462
840,905	-26	-3,447
851,698	-25,5	-3,452
862,474	-24,5	-3,411
873,255	-25	-3,433
884,037	-23,5	-3,377
894,818	-22,5	-3,391
905,599	-24,5	-3,43
916,387	-25,5	-3,453
927,174	-26	-3,47
937,955	-26	-3,47
948,731	-25	-3,442
959,512	-25,5	-3,454
970,294	-26	-3,47
981,093	-26,5	-3,476
991,868	-26	-3,472
1002,644	-24,5	-3,43
1013,437	-26,5	-3,462
1024,218	-26,5	-3,483
1035	-26	-3,472
1045,775	-26,5	-3,482
1056,557	-27	-3,49
1067,332	-27	-3,485
1078,113	-26,5	-3,479
1088,889	-26,5	-3,482
1099,664	-26,5	-3,488
1110,446	-26,5	-3,489
1121,227	-27	-3,495
1132,002	-27	-3,498
1142,784	-26,5	-3,499
1153,559	-26,5	-3,498
1164,358	-26,5	-3,499
1175,128	-26,5	-3,5
1185,903	-26,5	-3,373
1196,679	-26,5	-3,284
1207,454	-26,5	-3,242
1218,223	-24	-3,086
1228,999	-25	-2,992
1239,78	-20	-2,683
1250,55	-17,5	-2,433
1261,331	-13,5	-2,108
1272,1	-10,5	-1,869
1282,876	-11	-1,849
1293,639	-9	-1,758
1304,414	-9	-1,797
1315,19	-8,5	-1,598
1325,977	-6,5	-1,482
1336,747	-8	-1,584
1347,51	-8	-1,592
1358,279	-9	-1,731
1369,049	-10,5	-1,849
1379,812	-11	-1,894
1390,576	-12	-2,057
1401,357	-12,5	-2,073
1412,126	-14	-2,195
1422,902	-16,5	-2,294
1433,677	-14,5	-2,279
1444,44	-13,5	-2,188
1455,21	-13,5	-2,209
1465,985	-11	-2,025
1476,755	-11	-1,989
1487,536	-10	-1,865
1498,317	-9,5	-1,831
1509,099	-8,5	-1,672
1519,874	-7,5	-1,626
1530,65	-8,5	-1,665
1541,419	-9,5	-1,788
1552,2	-7,5	-1,697
1562,97	-8	-1,714
1573,727	-8,5	-1,741
1584,496	-6,5	-1,625
1595,278	-7	-1,66
1606,053	-7,5	-1,643
1616,811	-8,5	-1,777
1627,592	-9	-1,808
1638,379	-6,5	-1,617
1649,131	-8,5	-1,765
1659,912	-9	-1,924
1670,7	-9	-1,904
1681,463	-11	-2,068
1692,226	-11,5	-2,104
1703,002	-13	-2,248
1713,771	-15	-2,484
1724,546	-18	-2,576
1735,31	-18	-2,675
1746,079	-22	-2,93
1756,873	-20,5	-2,886
1767,636	-21	-2,889
1778,387	-21,5	-2,969
1789,157	-24	-3,217
1799,92	-23,5	-3,242
1810,684	-24	-3,447
1821,453	-23,5	-3,499
1832,222	-23,5	-3,5
1842,998	-23	-3,499
1853,779	-23	-3,499
1864,548	-23	-3,498
1875,324	-22,5	-3,495
1886,093	-22,5	-3,493
1896,863	-22	-3,462
1907,632	-20,5	-3,427
1918,395	-21	-3,45
1929,177	-20,5	-3,424
1939,964	-20	-3,426
1950,733	-20,5	-3,459
1961,509	-20,5	-3,456
1972,272	-21	-3,478
1983,042	-21	-3,483
1993,811	-20,5	-3,485
2004,58	-19,5	-3,49
2015,344	-19	-3,493
2026,119	-19	-3,494
2036,883	-18	-3,494
2047,658	-17,5	-3,489
2058,439	-17,5	-3,497
2069,209	-17	-3,498
2079,978	-17	-3,498
2090,765	-16,5	-3,498
2101,535	-16,5	-3,498
2112,31	-16,5	-3,497
2123,08	-16,5	-3,497
2133,861	-15,5	-3,5
2144,624	-16	-3,462
2155,394	-16	-3,5
2166,169	-15,5	-3,31
2176,945	-10,5	-2,816
2187,72	-5,5	-2,338
2198,489	-3	-1,866
2209,265	-1,5	-1,449
2220,04	0	-1,1
2230,822	0,5	-0,604
2241,591	1,5	-0,188
2252,372	3	-0,052
2263,154	3	-0,085
2273,941	3,5	-0,029
2284,71	4	-0,023
2295,492	4	-0,042
2306,267	3,5	-0,033
2317,037	3,5	-0,029
2327,818	4	-0,01
2338,581	4	-0,005
2349,351	4,5	-0,002
2360,12	4	-0,003
2370,889	4	-0,002
2381,659	4	-0,001
2392,422	4	0
2403,213	3,5	-0,369
2413,967	4	-0,001
2424,754	4	-0,002
2435,53	4	-0,017
2446,305	3	-0,089
2457,075	1	-0,58
2467,856	1	-0,466
2478,625	0	-0,803
2489,401	0	-1,092
2500,17	0	-1,102
2510,945	-1	-1,637
2521,703	-3,5	-2,345
2532,472	-9	-2,825
2543,26	-9	-2,985
2554,029	-12,5	-3,446
2564,798	-12	-3,498
2575,574	-11,5	-3,127
2586,349	-6,5	-2,783
2597,113	-5	-2,669
2607,882	-2,5	-2,143
2618,663	-1	-1,658
2629,439	-0,5	-1,428
2640,202	0	-1,028
2650,989	2	-0,262
2661,765	2,5	-0,119
2672,534	3,5	-0,06
2683,31	3,5	-0,026
2694,085	3,5	-0,033
2704,854	2,5	-0,11
2715,63	3	-0,073
2726,399	3	-0,07
2737,169	3,5	-0,027
2747,944	4	-0,004
2758,713	4	-0,002
2769,495	4	0
2780,276	4	-0,001
2791,045	4	-0,223
2801,815	4	-0,348
2812,596	2	-0,596
2823,36	4	0
2834,135	4	-0,002
2844,91	4	-0,011
2855,68	2,5	-0,126
2866,455	1	-0,572
2877,225	0,5	-0,961
2887,994	0	-1,27
2898,757	-0,5	-1,768
2909,515	-1	-2,073
2920,278	-4	-2,634
2931,06	-10,5	-3,292
2941,835	-10,5	-3,499
2952,604	-10,5	-3,495
2963,38	-10,5	-3,489
2974,149	-10,5	-3,481
2984,918	-9,5	-3,454
2995,7	-6,5	-3,308
3006,469	-5	-3,052
3017,239	-4	-2,85
3028,008	-3,5	-2,748
3038,783	-2,5	-2,47
3049,553	-2	-2,14
3060,316	-1	-1,514
3071,086	-0,5	-1,189
3081,873	0	-0,916
3092,642	3	-0,335
3103,412	4	-0,001
3114,187	4	-0,002
3124,956	4	-0,012
3135,732	3	-0,058
3146,501	1,5	-0,235
3157,265	1,5	-0,408
3168,028	0	-1,007
3178,797	0	-1,598
3189,555	-1,5	-2,243
3200,324	-3	-2,621
3211,111	-8	-2,957
3221,881	-10	-3,414
3231,588	4	-0,001