File: Cycling_tests/com_TC/entrada/_7.txt
Time (s)	Load (N)	Displacement (mm)
0	0	-0,036
10,625	1,5	-0,287
21,142	1	-0,41
31,665	1	-0,45
42,183	2	-0,294
52,7	2	-0,238
63,224	2,5	-0,003
73,753	2,5	-0,01
84,306	2,5	-0,006
94,83	2,5	-0,006
105,365	3	-0,008
115,907	2,5	-0,02
126,49	3	-0,009
137,049	3	-0,002
147,615	3	-0,102
158,174	0	-0,622
168,733	-1,5	-0,737
179,293	-2,5	-0,77
189,876	-5	-1,046
200,442	-5,5	-1,174
211,019	-5	-1,07
221,572	-3	-0,856
232,12	0,5	-0,532
242,673	2	-0,403
253,239	3	-0,232
263,822	3	-0,153
274,411	3	-0,114
284,977	3	-0,012
295,548	3	-0,222
306,138	1,5	-0,452
316,709	2,5	-0,413
327,298	2	-0,427
337,888	3	-0,285
348,465	3	-0,085
359,043	3,5	0
369,632	3,5	-0,01
380,233	3	-0,259
390,811	2,5	-0,37
401,376	0,5	-0,546
411,96	-3,5	-0,982
422,555	-5	-1,314
433,144	-7,5	-1,664
443,74	-10,5	-2,052
454,323	-12,5	-2,244
464,924	-15	-2,53
475,502	-15,5	-2,572
486,079	-15	-2,587
496,675	-15	-2,487
507,264	-15,5	-2,518
517,854	-15	-2,49
528,437	-13	-2,436
539,02	-13,5	-2,41
549,598	-15	-2,54
560,169	-13,5	-2,389
570,776	-11	-2,191
581,354	-9,5	-2,006
591,931	-8,5	-1,848
602,497	-8,5	-1,928
613,068	-8,5	-1,862
623,651	-8	-1,782
634,223	-8,5	-1,846
644,794	-8,5	-1,918
655,354	-6,5	-1,665
665,937	-7,5	-1,664
676,515	-6,5	-1,597
687,092	-6	-1,616
697,675	-9	-1,908
708,259	-9,5	-1,966
718,83	-8	-1,853
729,395	-6	-1,556
739,979	-5	-1,364
750,556	-4	-1,154
761,134	-3	-0,959
771,711	-0,5	-0,652
782,282	3	-0,351
792,878	3,5	-0,322
803,455	3,5	0
814,039	3,5	-0,001
824,616	3,5	-0,002
835,181	3,5	-0,003
845,753	3,5	-0,002
856,324	3,5	-0,002
866,889	3,5	-0,002
877,455	3,5	-0,002
888,032	3,5	-0,002
898,604	3,5	-0,002
909,157	3,5	-0,004
919,728	3,5	-0,01
930,3	3,5	-0,012
940,853	3,5	-0,013
951,419	3,5	-0,024
961,978	3,5	-0,038
972,537	3,5	-0,016
983,109	3,5	-0,008
993,674	3,5	-0,003
1004,24	3,5	-0,003
1014,811	3,5	-0,002
1025,359	3,5	-0,001
1035,942	3,5	-0,016
1046,501	3,5	-0,085
1057,079	3,5	-0,065
1067,644	3,5	0
1078,209	3,5	-0,001
1088,787	3,5	-0,001
1099,364	3,5	-0,001
1109,924	3,5	-0,001
1120,489	3,5	0
1131,03	3,5	-0,163
1141,59	3,5	-0,273
1152,173	3,5	-0,222
1162,733	3,5	-0,057
1173,274	3,5	-0,001
1183,851	3,5	-0,002
1194,411	3,5	-0,012
1204,97	3	-0,047
1215,536	1	-0,164
1226,107	0,5	-0,238
1236,678	0,5	-0,298
1247,226	-2	-0,733
1257,779	0	-0,488
1268,357	0,5	-0,29
1278,904	-1	-0,555
1289,475	-1	-0,546
1300,041	-0,5	-0,418
1310,6	0	-0,27
1321,16	1	-0,165
1331,713	1	-0,177
1342,266	-1,5	-0,539
1352,82	-2	-0,762
1363,373	-1,5	-0,743
1373,933	-5	-1,229
1384,498	-8,5	-1,676
1395,063	-9	-1,692
1405,629	-13,5	-2,188
1416,194	-22	-2,892
1426,754	-26	-3,376
1437,319	-26	-3,498
1447,878	-25,5	-3,479
1458,432	-24,5	-3,456
1468,991	-20	-3,334
1479,551	-17	-3,029
1490,104	-12	-2,533
1500,657	-12	-2,549
1511,223	-11	-2,405
1521,782	-10	-2,322
1532,33	-8,5	-2,12
1542,889	-8	-2,134
1553,46	-9,5	-2,222
1564,02	-9	-2,193
1574,591	-10	-2,378
1585,138	-11	-2,437
1595,71	-15	-2,87
1606,281	-17,5	-3,051
1616,841	-16,5	-2,974
1627,406	-16	-2,985
1637,959	-17	-3,047
1648,519	-18	-3,123
1659,066	-15	-2,976
1669,632	-16	-2,95
1680,179	-15,5	-2,945
1690,732	-16	-2,932
1701,304	-13,5	-2,755
1711,857	-12,5	-2,58
1722,411	-14,5	-2,801
1732,964	-13	-2,721
1743,517	-13	-2,677
1754,077	-11,5	-2,525
1764,63	-7,5	-1,976
1775,19	-5,5	-1,818
1785,755	-6	-1,942
1796,314	-5,5	-1,837
1806,88	-4	-1,566
1817,433	-3,5	-1,437
1827,999	-4,5	-1,598
1838,558	-5	-1,85
1849,123	-7,5	-2,148
1859,689	-9,5	-2,387
1870,236	-10,5	-2,536
1880,79	-10,5	-2,558
1891,343	-11	-2,593
1901,908	-14	-2,896
1912,462	-15	-2,975
1923,009	-15,5	-3,088
1933,575	-18	-3,215
1944,134	-19	-3,31
1954,699	-21,5	-3,407
1965,259	-22	-3,428
1975,818	-22,5	-3,443
1986,378	-22,5	-3,46
1996,931	-22,5	-3,469
2007,484	-22,5	-3,486
2018,038	-22,5	-3,496
2028,597	-22	-3,499
2039,151	-21	-3,499
2049,704	-20,5	-3,499
2060,269	-19,5	-3,5
2070,829	-19,5	-3,388
2081,388	-15	-2,964
2091,941	-13,5	-2,85
2102,495	-11,5	-2,721
2113,054	-9,5	-2,564
2123,602	-7,5	-2,452
2134,155	-8,5	-2,48
2144,702	-7	-2,379
2155,262	-7	-2,424
2165,827	-6,5	-2,349
2176,381	-4,5	-2,148
2186,934	-4,5	-2,096
2197,493	-5,5	-2,178
2208,071	-4,5	-2,118
2218,624	-4	-2,029
2229,178	-3	-2,003
2239,731	-3,5	-2,009
2250,29	-2,5	-1,795
2260,844	-2	-1,732
2271,391	-2	-1,61
2281,939	-2,5	-1,8
2292,498	-2	-1,734
2303,045	-2	-1,632
2313,605	-1,5	-1,54
2324,158	-1,5	-1,652
2334,736	-1,5	-1,634
2345,301	-1	-1,475
2355,86	0	-1,239
2366,42	0	-1,194
2376,973	0	-1,164
2387,539	0	-1,109
2398,092	0	-1,233
2408,663	-0,5	-1,533
2419,229	-2,5	-1,962
2429,794	-3	-2,118
2440,354	-4	-2,204
2450,907	-4,5	-2,36
2461,46	-6	-2,675
2472,02	-10	-3,03
2482,567	-11	-3,039
2493,127	-10,5	-3,015
2503,686	-11,5	-3,104
2514,239	-11	-3,1
2524,793	-12,5	-3,156
2535,346	-12,5	-3,21
2545,906	-10,5	-3,03
2556,453	-8	-2,785
2567	-6	-2,652
2577,566	-3,5	-2,242
2588,125	-2	-1,937
2598,685	-1	-1,706
2609,25	0	-1,306
2619,821	0	-0,925
2630,375	2	-0,232
2640,928	2	-0,172
2651,494	2	-0,241
2662,059	1,5	-0,545
2672,612	1	-0,694
2683,196	0,5	-0,838
2693,749	0	-0,945
2704,309	0	-1,342
2714,85	0	-1,318
2725,403	-0,5	-1,457
2735,975	0	-1,299
2746,54	0	-0,99
2757,088	0,5	-0,799
2767,647	0,5	-0,849
2778,2	0	-1,27
2788,76	-1	-1,73
2799,313	-2	-1,943
2809,866	-1,5	-1,914
2820,426	-1,5	-1,895
2830,979	-1,5	-1,859
2841,545	-0,5	-1,688
2852,104	-0,5	-1,586
2862,669	0	-1,202
2873,229	0,5	-0,865
2883,8	0,5	-0,931
2894,354	0,5	-0,688
2904,901	1	-0,5
2915,472	2	-0,154
2926,032	3	-0,062
2936,585	3	-0,055
2947,139	3,5	-0,026
2957,704	4	-0,008
2968,263	4	-0,003
2978,823	4	-0,002
2989,394	4	-0,001
2999,954	3,5	-0,001
3010,507	4	-0,007
3021,06	4	-0,303
3031,62	3,5	-0,364
3042,161	4	-0,13
3052,727	4	0
3063,268	4	-0,001
3073,821	4	0
3084,375	4	-0,019
3094,928	4	-0,032
3105,488	4	-0,071
3116,047	4	-0,103
3126,606	4	-0,096
3137,154	4	-0,154
3147,719	3	-0,315
3158,273	4	-0,244
3168,73	4	-0,001