File: ensaios_Ciclicos/_60perc/_1gap/entrada/_3.txt
Time (s)	Load (N)	Displacement (mm)
0	0	-0,041
10,685	1	-0,002
21,304	1,5	-0,006
31,911	1	-0,019
42,543	1,5	-0,023
53,174	1,5	-0,047
63,806	0,5	-0,116
74,425	0	-0,198
85,092	0	-0,246
95,742	-0,5	-0,62
106,391	-1,5	-0,96
117,022	-4	-1,683
127,654	-5,5	-2,118
138,303	-11	-2,808
148,941	-12,5	-3,471
159,566	-12,5	-3,499
170,215	-12,5	-3,497
180,859	-12,5	-3,497
191,49	-12	-3,489
202,128	-12	-3,45
212,795	-11,5	-3,444
223,444	-9,5	-3,283
234,094	-7,5	-2,92
244,749	-5	-2,452
255,404	-4,5	-2,256
266,024	-3	-1,852
276,673	-3	-1,805
287,341	-3	-1,828
298,02	-3,5	-2,025
308,657	-3	-1,842
319,301	-3	-1,696
329,938	-2	-1,461
340,57	-1,5	-1,233
351,207	-1	-1,168
361,85	-0,5	-0,963
372,5	0	-0,627
383,155	1,5	-0,322
393,817	1,5	-0,319
404,478	2	-0,196
415,103	2	-0,001
425,777	2	-0,002
436,444	2	-0,003
447,118	2	-0,007
457,773	2	-0,01
468,404	2	-0,016
479,054	1,5	-0,026
489,709	1,5	-0,059
500,358	1	-0,162
511,008	0	-0,485
521,645	0	-0,594
532,301	0	-0,712
542,938	-0,5	-0,969
553,593	-1,5	-1,432
564,237	-1,5	-1,409
574,886	-2	-1,621
585,53	-3,5	-2,018
596,179	-4,5	-2,284
606,822	-6	-2,574
617,478	-7,5	-2,788
628,145	-8,5	-2,879
638,807	-9,5	-3,036
649,444	-10	-3,237
660,093	-10,5	-3,5
670,749	-10,5	-3,498
681,38	-10,5	-3,492
692,042	-10	-3,468
702,685	-8,5	-3,39
713,346	-7	-3,24
723,99	-5,5	-2,971
734,627	-4,5	-2,661
745,27	-4	-2,489
755,908	-3,5	-2,296
766,551	-3	-2,107
777,183	-1,5	-1,639
787,814	-1	-1,093
798,451	1	-0,528
809,101	2	-0,015
819,744	2	-0,001
830,394	2	-0,008
841,031	2	-0,018
851,698	2	-0,022
862,342	1,5	-0,063
872,985	1	-0,192
883,617	0,5	-0,231
894,266	0,5	-0,344
904,903	0	-0,516
915,553	0	-0,452
926,172	0	-0,714
936,816	0	-0,886
947,465	0	-0,896
958,126	0	-0,869
968,776	-0,5	-1,144
979,419	-1	-1,312
990,056	-1	-1,468
1000,712	-1,5	-1,516
1011,343	-1,5	-1,628
1021,987	-3	-1,981
1032,642	-4	-2,234
1043,297	-5,5	-2,591
1053,953	-7	-2,768
1064,608	-8,5	-3,062
1075,258	-10	-3,475
1085,907	-9,5	-3,5
1096,55	-9,5	-3,498
1107,2	-10	-3,494
1117,837	-9,5	-3,49
1128,469	-10	-3,494
1139,124	-9,5	-3,498
1149,773	-10	-3,499
1160,411	-9,5	-3,467
1171,066	-9,5	-3,32
1181,71	-9,5	-3,295
1192,365	-8,5	-3,122
1203,014	-7,5	-2,87
1213,664	-6,5	-2,679
1224,319	-5,5	-2,6
1234,98	-6	-2,519
1245,636	-4,5	-2,244
1256,285	-4	-2,265
1266,947	-2,5	-1,89
1277,578	-1	-1,486
1288,227	0	-0,976
1298,871	0	-0,782
1309,526	0,5	-0,411
1320,17	0	-0,287
1330,819	1,5	-0,12
1341,456	1,5	-0,058
1352,1	2	-0,022
1362,749	2	-0,01
1373,399	2	-0,004
1384,042	2	-0,002
1394,691	2	-0,002
1405,341	1,5	-0,391
1415,984	1,5	-0,5
1426,628	-0,5	-0,89
1437,271	-0,5	-1,036
1447,92	-1,5	-1,59
1458,564	-1,5	-1,566
1469,225	-1,5	-1,716
1479,868	-2	-1,746
1490,512	-1,5	-1,62
1501,173	-1	-1,414
1511,805	-1	-1,17
1522,442	-0,5	-0,929
1533,079	-0,5	-0,864
1543,717	0	-0,709
1554,366	0	-0,683
1565,01	0,5	-0,562
1575,653	0,5	-0,618
1586,302	0	-0,715
1596,934	0,5	-0,603
1607,571	1	-0,55
1618,215	1,5	-0,407
1628,852	2	-0,341
1639,495	1,5	-0,397
1650,133	2	-0,185
1660,782	2	-0,077
1671,414	1,5	-0,35
1682,081	0,5	-0,601
1692,724	-0,5	-0,912
1703,374	-0,5	-1,188
1714,005	-1	-1,608
1724,643	-1,5	-1,975
1735,304	-2	-2,105
1745,941	-2,5	-2,166
1756,573	-1,5	-1,876
1767,21	-3	-2,427
1777,86	-5	-3,071
1788,497	-4,5	-2,952
1799,146	-4,5	-2,963
1809,802	-5	-2,967
1820,427	-6,5	-3,33
1831,076	-8,5	-3,453
1841,732	-9	-3,494
1852,381	-9	-3,494
1863,013	-9	-3,498
1873,644	-9	-3,483
1884,287	-6	-2,714
1894,931	-3	-2,126
1905,58	-1	-1,466
1916,236	0	-0,815
1926,885	0,5	-0,195
1937,528	1,5	-0,052
1948,166	2	-0,016
1958,785	2	-0,01
1969,423	2	-0,002
1980,078	2	-0,001
1990,715	2	-0,002
2001,353	2	-0,004
2012,014	2	-0,004
2022,652	2	-0,007
2033,289	2	-0,001
2043,938	2	0
2054,576	2	-0,21
2065,213	1	-0,516
2075,868	-0,5	-1,067
2086,518	-1	-1,604
2097,161	-0,5	-1,336
2107,811	-0,5	-1,225
2118,46	0	-0,821
2129,097	1	-0,58
2139,735	2	-0,077
2150,366	2	-0,002
2161,004	2	-0,007
2171,647	2	-0,014
2182,284	2	-0,025
2192,916	2	-0,03
2203,565	1,5	-0,052
2214,203	1	-0,262
2224,846	0	-0,442
2235,471	0	-0,88
2246,121	0	-0,827
2256,764	0	-0,691
2267,413	1	-0,259
2278,051	1	-0,164
2288,682	0,5	-0,252
2299,314	1	-0,121
2309,939	1,5	-0,064
2320,57	2	-0,017
2331,19	1,5	-0,004
2341,815	1,5	-0,002
2352,447	2	0
2363,084	2	-0,244
2373,721	0	-0,721
2384,347	-0,5	-1,094
2394,972	-1	-1,399
2405,604	-1,5	-1,741
2416,241	-1,5	-1,867
2426,884	-2	-2,188
2437,528	-2,5	-2,366
2448,159	-4	-2,872
2458,797	-5,5	-3,297
2469,422	-7,5	-3,448
2480,059	-8	-3,486
2490,685	-8	-3,488
2501,322	-8	-3,498
2511,96	-8	-3,499
2522,591	-8	-3,396
2533,222	-6	-2,924
2543,86	-4,5	-2,669
2554,491	-2,5	-2,259
2565,123	-1,5	-1,903
2575,754	-0,5	-1,328
2586,397	0	-0,864
2597,017	0,5	-0,428
2607,642	1,5	-0,087
2618,267	2	-0,026
2628,893	2	-0,009
2639,53	2	-0,002
2650,162	2	-0,131
2660,799	0	-0,746
2671,436	-0,5	-1,313
2682,062	-1	-1,672
2692,705	-2	-2,132
2703,343	-2	-2,211
2713,968	-2,5	-2,282
2724,605	-3	-2,637
2735,237	-3,5	-2,818
2745,874	-4	-2,998
2756,506	-3,5	-2,973
2767,155	-5,5	-3,386
2777,792	-7,5	-3,48
2788,424	-7,5	-3,495
2799,055	-7,5	-3,499
2809,693	-7,5	-3,295
2820,342	-5	-2,816
2830,985	-2,5	-2,281
2841,617	-1,5	-2,062
2852,248	-0,5	-1,625
2862,897	0	-1,228
2873,535	0	-0,888
2884,172	0,5	-0,256
2894,81	1,5	-0,054
2905,453	2	-0,012
2916,084	2	-0,002
2926,716	2	-0,144
2937,353	0	-0,875
2947,979	-0,5	-1,287
2958,604	-1	-1,827
2969,235	-2	-2,28
2979,861	-2,5	-2,782
2990,486	-4	-3,109
3001,118	-4,5	-3,36
3011,755	-5	-3,441
3022,398	-5,5	-3,488
3033,024	-5,5	-3,495
3043,649	-5	-3,498
3054,281	-5	-3,5
3064,906	-5	-3,499
3075,537	-5	-3,496
3086,187	-4,5	-3,071
3096,83	-2,5	-2,633
3107,468	-0,5	-1,915
3118,123	0	-0,828
3128,766	1	-0,124
3139,416	2	-0,024
3150,047	1,5	-0,019
3160,684	2	-0,012
3171,322	2	-0,01
3181,953	2	-0,007
3188,445	2	-0,001