File: ensaios_Ciclicos/_60perc/_2gap/entrada/_1.txt
Time (s)	Load (N)	Displacement (mm)
0	0	-0,026
10,755	0,5	-0,172
21,494	1	-0,18
32,227	1	0
42,979	0,5	0
53,724	1	-0,001
64,452	1	-0,002
75,191	1	-0,002
85,918	1,5	-0,002
96,688	1	-0,004
107,421	1	-0,006
118,161	1,5	-0,014
128,906	1	-0,032
139,645	0,5	-0,11
150,391	0,5	-0,112
161,13	0,5	-0,12
171,869	0,5	-0,102
182,615	1	-0,079
193,348	0,5	-0,103
204,088	0	-0,172
214,833	0	-0,242
225,578	0	-0,328
236,312	0	-0,392
247,051	0	-0,462
257,79	0	-0,4
268,542	0	-0,405
279,299	0	-0,333
290,039	0	-0,452
300,784	0	-0,418
311,535	-0,5	-0,492
322,287	0	-0,396
333,014	-1	-0,824
343,766	-1	-0,834
354,505	-1,5	-0,976
365,244	-1,5	-1,073
376,002	-1,5	-0,984
386,747	-0,5	-0,807
397,492	-0,5	-0,668
408,238	-0,5	-0,782
419,001	-0,5	-0,558
429,759	0	-0,32
440,51	0,5	-0,169
451,267	1	-0,091
462,025	1	-0,058
472,77	1	-0,063
483,528	1,5	-0,034
494,261	1,5	-0,028
505,012	1,5	-0,015
515,77	1,5	-0,004
526,521	1,5	-0,001
537,272	1,5	0
548,036	1	-0,34
558,781	0,5	-0,572
569,521	1	-0,507
580,284	1,5	-0,375
591,029	1	-0,393
601,781	1,5	-0,164
612,538	1	-0,476
623,278	1	-0,421
634,035	1	-0,446
644,804	0,5	-0,531
655,55	0	-0,576
666,301	0	-0,602
677,053	0	-0,672
687,804	-0,5	-0,867
698,555	-1	-1,022
709,319	-1	-1,024
720,088	-1,5	-1,216
730,863	-1,5	-1,286
741,609	-1,5	-1,332
752,348	-1,5	-1,171
763,106	-1,5	-1,322
773,863	-2	-1,437
784,602	-1,5	-1,24
795,378	-2	-1,486
806,159	-2,5	-1,765
816,941	-3	-1,968
827,692	-3	-1,925
838,449	-2,5	-1,96
849,225	-3,5	-2,17
859,988	-4	-2,347
870,751	-4,5	-2,407
881,533	-5	-2,59
892,302	-5	-2,574
903,066	-5,5	-2,755
913,817	-5,5	-2,818
924,598	-7,5	-3,206
935,38	-8,5	-3,348
946,125	-8,5	-3,29
956,901	-9,5	-3,421
967,664	-10	-3,428
978,427	-10,5	-3,463
989,179	-10,5	-3,471
999,936	-10,5	-3,485
1010,693	-10,5	-3,47
1021,469	-10,5	-3,475
1032,214	-10,5	-3,47
1042,99	-10,5	-3,492
1053,753	-11	-3,497
1064,498	-10,5	-3,499
1075,268	-10,5	-3,494
1086,037	-10,5	-3,251
1096,807	-9,5	-2,966
1107,558	-8,5	-2,875
1118,327	-8	-2,721
1129,097	-6	-2,552
1139,854	-4,5	-2,25
1150,617	-3,5	-2,053
1161,369	-3,5	-1,93
1172,126	-3	-1,916
1182,896	-2,5	-1,742
1193,653	-2	-1,583
1204,398	-1,5	-1,439
1215,162	-2	-1,506
1225,925	-2	-1,548
1236,694	-1,5	-1,441
1247,476	-1,5	-1,291
1258,251	-0,5	-1,182
1269,009	-0,5	-1,072
1279,766	-0,5	-1,014
1290,517	-0,5	-0,878
1301,281	-0,5	-1,009
1312,05	-0,5	-1,025
1322,814	-1	-1,082
1333,577	-0,5	-1,038
1344,34	-0,5	-0,904
1355,11	-1	-1,037
1365,885	-0,5	-0,916
1376,637	0	-0,799
1387,394	0	-0,732
1398,169	0	-0,517
1408,915	0	-0,526
1419,666	0	-0,558
1430,447	0	-0,354
1441,193	0	-0,405
1451,95	0	-0,44
1462,72	0	-0,267
1473,477	0,5	-0,158
1484,24	1	-0,108
1494,998	1,5	-0,067
1505,749	1,5	-0,023
1516,501	1,5	-0,009
1527,258	1,5	-0,006
1538,009	1,5	-0,002
1548,767	2	-0,001
1559,53	1,5	-0,001
1570,287	1,5	-0,018
1581,045	1,5	-0,252
1591,808	1	-0,377
1602,56	1	-0,532
1613,329	0	-0,85
1624,092	-1	-1,144
1634,844	-1,5	-1,352
1645,613	-2	-1,777
1656,371	-3	-2,067
1667,122	-4	-2,306
1677,879	-4,5	-2,55
1688,625	-5	-2,69
1699,394	-6	-3,018
1710,157	-8,5	-3,37
1720,921	-9	-3,401
1731,69	-9,5	-3,446
1742,448	-9,5	-3,459
1753,205	-10	-3,486
1763,974	-10	-3,496
1774,726	-10	-3,497
1785,477	-10	-3,498
1796,241	-10	-3,499
1807,004	-9,5	-3,215
1817,779	-7,5	-2,82
1828,537	-6,5	-2,637
1839,294	-5	-2,351
1850,051	-4,5	-2,194
1860,815	-3,5	-2,023
1871,572	-3	-1,886
1882,33	-2	-1,634
1893,087	-2	-1,56
1903,844	-1,5	-1,418
1914,596	-1	-1,11
1925,359	-0,5	-1,01
1936,129	0	-0,796
1946,886	0	-0,674
1957,661	0	-0,475
1968,419	0,5	-0,168
1979,188	1,5	-0,07
1989,945	1,5	-0,031
2000,703	1,5	-0,022
2011,46	2	-0,009
2022,23	1,5	-0,004
2032,981	1,5	-0,001
2043,744	1	-0,369
2054,502	0	-0,82
2065,259	-1,5	-1,306
2076,017	-1,5	-1,522
2086,78	-2	-1,79
2097,549	-2,5	-2,082
2108,307	-3	-2,276
2119,058	-3,5	-2,367
2129,809	-3,5	-2,313
2140,567	-3	-2,301
2151,336	-3,5	-2,476
2162,106	-3	-2,359
2172,851	-3	-2,346
2183,614	-3	-2,277
2194,366	-2,5	-2,133
2205,123	-2	-1,987
2215,893	-2	-1,881
2226,65	-2	-1,872
2237,413	-1,5	-1,669
2248,171	-2	-1,687
2258,934	-1,5	-1,684
2269,691	-2	-1,772
2280,443	-2	-1,735
2291,194	-1,5	-1,671
2301,958	-2,5	-1,933
2312,715	-2	-1,937
2323,454	-1,5	-1,78
2334,21	-2	-1,837
2344,969	-2	-1,996
2355,715	-2,5	-2,092
2366,472	-2,5	-2,122
2377,217	-2,5	-2,081
2387,975	-2	-2,017
2398,738	-3,5	-2,597
2409,507	-6,5	-3,353
2420,265	-8	-3,454
2431,022	-7,5	-3,446
2441,774	-8	-3,447
2452,543	-7,5	-3,467
2463,306	-7,5	-3,466
2474,052	-7	-3,422
2484,797	-6	-3,327
2495,555	-5	-3,149
2506,312	-5,5	-3,29
2517,063	-4,5	-3,109
2527,833	-4,5	-3,092
2538,578	-5	-3,164
2549,336	-5	-3,224
2560,099	-5,5	-3,345
2570,85	-6,5	-3,411
2581,614	-7	-3,433
2592,371	-6,5	-3,437
2603,134	-7	-3,453
2613,886	-6,5	-3,42
2624,637	-6	-3,36
2635,401	-5,5	-3,295
2646,146	-4,5	-3,077
2656,891	-4	-2,952
2667,655	-3,5	-2,72
2678,424	-3	-2,692
2689,182	-3	-2,659
2699,939	-3	-2,497
2710,708	-2,5	-2,508
2721,478	-3	-2,666
2732,235	-3	-2,59
2742,998	-2,5	-2,464
2753,744	-2	-2,301
2764,501	-2	-2,242
2775,247	-2	-2,238
2786,004	-2	-2,267
2796,749	-2	-2,105
2807,507	-2	-2,076
2818,252	-1,5	-2,146
2829,016	-2	-2,207
2839,767	-2	-2,228
2850,524	-2	-2,215
2861,288	-2	-2,302
2872,057	-2	-2,307
2882,826	-2	-2,291
2893,584	-1,5	-2,272
2904,347	-2	-2,312
2915,099	-2	-2,258
2925,862	-2,5	-2,41
2936,619	-2,5	-2,376
2947,371	-1,5	-2,104
2958,128	-1,5	-2,091
2968,88	-2	-2,192
2979,655	-2	-2,339
2990,406	-2	-2,324
3001,158	-2	-2,372
3011,927	-2	-2,536
3022,684	-2	-2,602
3033,442	-3	-2,808
3044,199	-3,5	-3,093
3054,951	-4	-3,246
3065,702	-4	-3,293
3076,465	-5	-3,41
3087,247	-5	-3,442
3097,998	-5,5	-3,454
3108,756	-5,5	-3,458
3119,495	-5	-3,42
3130,252	-5	-3,422
3141,016	-5	-3,435
3151,773	-5,5	-3,454
3162,536	-5	-3,461
3173,282	-5	-3,447
3184,033	-5	-3,447
3194,797	-5,5	-3,448
3205,554	-5	-3,459
3216,299	-5,5	-3,459
3221,957	1,5	0