File: ensaios_Ciclicos/_60perc/_2gap/entrada/_3.txt
Time (s)	Load (N)	Displacement (mm)
0	0	-0,04
10,205	-2	-0,572
20,332	-16,5	-3,5
30,472	-9,5	-2,696
40,599	1	-0,001
50,744	-3,5	-1,194
60,902	-15	-3,498
71,041	-5	-1,98
81,181	1,5	-0,004
91,32	-4,5	-1,453
101,465	-15	-3,498
111,593	-6	-2,34
121,738	1,5	-0,001
131,92	0	-0,424
142,065	-11	-2,785
152,217	-13,5	-3,441
162,38	-3	-1,484
172,543	1,5	-0,005
218,861	-1,5	-1,017
229,048	-14	-3,498
239,212	-7,5	-2,799
249,381	0	-0,515
259,545	0,5	-0,209
269,69	-10,5	-2,823
279,847	-10,5	-3,295
290,005	-0,5	-0,77
300,162	1	-0,078
310,344	-6	-2,052
320,495	-13,5	-3,495
330,664	-4,5	-2,225
340,846	1,5	-0,001
351,021	-0,5	-0,7
361,185	-13	-3,387
371,354	-8	-2,974
381,535	0	-0,692
391,711	1,5	-0,04
438,046	-0,5	-0,743
448,228	-11,5	-3,051
458,415	-10	-3,303
468,59	-1	-0,93
478,766	1,5	-0,006
488,964	-1	-0,947
499,14	-9	-2,737
509,321	-12	-3,484
519,497	-4	-2,386
529,678	1,5	-0,239
539,859	1,5	-0,069
550,047	-3	-1,686
560,228	-12,5	-3,498
570,398	-5,5	-2,566
580,597	1	-0,401
590,785	1,5	-0,055
600,954	-4,5	-2
611,111	-12	-3,487
693,649	-4	-2,147
703,812	1,5	-0,001
713,993	0	-0,635
724,169	-10	-2,988
734,332	-10	-3,376
744,508	-1,5	-1,049
754,689	1,5	-0,01
764,877	-1,5	-1,257
775,07	-12	-3,388
785,245	-9	-3,182
795,433	-1,5	-1,068
805,584	1,5	-0,014
815,76	-2	-1,427
825,935	-11,5	-3,499
836,098	-5	-2,59
846,262	1,5	-0,298
856,443	1	-0,101
866,619	-4,5	-2,168
876,782	-11,5	-3,49
886,958	-3,5	-2,082
897,127	1,5	-0,001
907,29	-0,5	-0,716
917,466	-11,5	-3,099
927,641	-10,5	-3,426
937,805	-2	-1,551
947,974	1,5	-0,004
958,149	-1	-1,178
968,325	-11,5	-3,499
978,506	-5	-2,68
988,676	1,5	-0,168
998,851	0	-0,258
1009,027	-7,5	-2,754
1019,196	-10,5	-3,446
1029,365	-1,5	-1,342
1039,553	1,5	-0,008
1049,716	-1,5	-1,497
1059,892	-11,5	-3,498
1070,055	-4,5	-2,474
1080,224	1,5	-0,284
1090,388	0,5	-0,224
1100,563	-6,5	-2,574
1110,745	-10,5	-3,469
1120,908	-2	-1,616
1131,066	1,5	-0,006
1141,247	-1,5	-1,392
1151,41	-11	-3,499
1161,58	-5	-2,611
1171,743	1,5	-0,258
1181,913	1	-0,148
1192,076	-5	-2,368
1202,228	-11	-3,475
1212,397	-2,5	-1,627
1222,554	1,5	-0,004
1232,718	-1	-1,286
1242,893	-11	-3,499
1253,063	-6	-2,952
1263,22	0	-0,736
1273,395	1,5	-0,051
1283,559	-3,5	-1,974
1293,728	-11	-3,496
1303,892	-4	-2,348
1314,067	1	-0,294
1324,231	1	-0,154
1334,388	-5	-2,297
1344,557	-11	-3,487
1354,721	-2,5	-1,965
1364,896	1,5	-0,002
1375,066	0	-0,724
1385,235	-8,5	-2,817
1395,398	-10	-3,449
1405,574	-2,5	-1,875
1415,737	1,5	-0,001
1425,901	0	-0,524
1436,07	-6,5	-2,574
1446,234	-10,5	-3,463
1456,391	-2	-1,588
1466,555	1,5	-0,003
1476,718	-1	-1,162
1486,887	-11	-3,365
1497,051	-6,5	-3,085
1507,214	0	-0,74
1517,378	1,5	-0,055
1527,535	-3,5	-2,082
1537,704	-10,5	-3,493
1547,874	-3,5	-2,238
1558,025	1,5	-0,18
1568,213	1	-0,098
1578,394	-2,5	-1,855
1588,551	-10,5	-3,499
1598,703	-6,5	-3,116
1608,86	-1	-1,002
1619,024	2	-0,006
1629,187	-0,5	-1,079
1639,357	-9,5	-3,058
1649,508	-9	-3,42
1659,671	-1,5	-1,387
1669,829	1,5	-0,004
1679,986	-0,5	-1,078
1690,144	-10,5	-3,258
1700,307	-8	-3,3
1710,47	-1,5	-1,312
1720,64	1,5	-0,005
1730,803	-1	-1,254
1740,967	-10,5	-3,494
1751,136	-6,5	-3,127
1761,294	0	-0,822
1771,457	1,5	-0,03
1781,614	-2,5	-1,761
1791,784	-10,5	-3,498
1801,935	-4	-2,527
1812,093	1,5	0
1822,25	0	-0,661
1832,408	-8,5	-2,903
1842,565	-9	-3,389
1852,728	-1	-1,152
1862,88	1,5	-0,022
1873,043	-3	-1,892
1883,207	-10,5	-3,496
1893,37	-2	-1,89
1903,527	2	-0,002
1913,691	-1	-1,215
1923,848	-10,5	-3,499
1934	-3	-2,232
1944,151	1,5	-0,002
1954,303	-1	-1,128
1964,46	-10,5	-3,499
1974,617	-4	-2,551
1984,769	1	-0,391
1994,92	0,5	-0,098
2005,078	-5,5	-2,464
2015,235	-10	-3,461
2025,393	-1,5	-1,315
2035,544	1,5	-0,005
2045,701	-1	-1,338
2055,847	-10	-3,498
2065,992	-3	-2,226
2076,156	2	-0,001
2086,313	0	-0,671
2096,476	-10,5	-3,439
2106,634	-6,5	-3,165
2116,779	0	-0,66
2126,925	1,5	-0,064
2137,088	-3	-1,981
2147,246	-10	-3,497
2157,397	-3	-2,146
2167,548	1,5	0
2177,706	0	-0,392
2187,869	-6,5	-2,581
2198,027	-8,5	-3,41
2208,184	-1,5	-1,31
2218,347	1,5	-0,021
2228,511	-2	-1,791
2238,662	-10	-3,486
2248,82	-1	-1,4
2258,971	1,5	-0,007
2269,129	-1,5	-1,513
2279,274	-10	-3,499
2289,425	-4	-2,606
2299,583	2	-0,106
2309,74	0,5	-0,248
2319,904	-4,5	-2,505
2330,055	-10	-3,481
2340,213	-2	-1,871
2350,364	1,5	-0,001
2360,521	0	-0,841
2370,679	-9	-3,015
2380,836	-7,5	-3,374
2390,994	0	-0,882
2401,157	1,5	-0,054
2411,308	-3	-2,076
2421,466	-9	-3,487
2431,617	-1,5	-1,754
2441,763	2	-0,003
2451,92	-0,5	-1,127
2462,09	-9	-3,5
2472,235	-4	-2,786
2482,392	1,5	-0,351
2492,544	0	-0,373
2502,707	-6	-2,793
2512,877	-8	-3,415
2523,04	-1	-1,354
2533,198	2	-0,008
2543,355	-0,5	-1,483
2553,518	-9	-3,499
2563,676	-3	-2,487
2573,833	1,5	-0,259
2583,997	0,5	-0,33
2594,148	-4,5	-2,591
2604,299	-8	-3,47
2614,445	-1	-1,546
2624,608	2	-0,006
2634,766	-0,5	-1,538
2644,929	-8	-3,499
2655,093	-3	-2,605
2665,256	1,5	0
2675,419	0	-0,704
2685,577	-8	-3,138
2695,734	-5,5	-3,27
2705,904	0	-0,794
2716,061	0,5	-0,194
2726,218	-5,5	-2,952
2736,358	-5,5	-3,207
2746,521	0	-0,762
2756,685	1,5	-0,068
2766,836	-2,5	-2,282
2776,994	-7,5	-3,485
2787,151	-1	-1,701
2797,308	2	-0,003
2807,466	0	-1,13
2817,623	-7,5	-3,5
2827,781	-3,5	-2,856
2837,944	1,5	-0,34
2848,108	0	-0,665
2858,253	-7	-3,187
2868,416	-5,5	-3,36
2878,586	-0,5	-1,239
2888,743	2	-0,017
2898,907	-1	-1,866
2909,07	-7	-3,496
2919,228	-1,5	-2,162
2929,385	2	-0,001
2939,554	0,5	-0,679
2949,706	-5,5	-3,046
2959,869	-4,5	-3,276
2970,027	-0,5	-1,062
2980,178	1,5	-0,032
2990,341	-0,5	-1,972
3000,499	-6	-3,493
3010,638	-1	-1,926
3020,79	2	-0,002
3030,947	0	-1,027
3041,098	-6	-3,242
3051,256	-3	-3,085
3061,407	0,5	-0,617
3071,565	1	-0,098
3081,722	-3	-2,597
3091,874	-5,5	-3,448
3102,025	-0,5	-1,272
3112,17	1,5	-0,03
3122,322	-1	-1,932
3132,473	-6	-3,493
3142,631	-1	-1,971
3152,788	2	-0,002
3162,946	0	-0,901
3173,097	-6	-3,306
3183,248	-3	-3
3189,02	2	0