File: ensaios_Ciclicos/_60perc/_2gap/entrada/_4.txt
Time (s)	Load (N)	Displacement (mm)
36,099	-8,5	-2,165
45,903	-2	-1,02
55,712	-14,5	-3,493
65,516	1	0
75,331	-10,5	-2,673
85,129	-2	-1,045
94,95	-7	-2,14
104,777	-4	-1,769
114,611	-2,5	-1,228
124,42	-3	-1,394
134,242	-2,5	-1,308
144,051	-3	-1,652
153,86	-6	-2,006
163,688	-3	-1,482
173,497	-1,5	-0,996
255,519	-6	-2,512
265,358	0	-0,476
275,186	-6,5	-2,769
285,007	1,5	-0,053
294,84	-12	-3,494
304,668	1,5	0
314,495	-12	-3,444
324,329	1	-0,314
334,156	-4,5	-1,962
344,008	-6,5	-2,733
353,841	1	-0,062
363,669	-12	-3,499
373,508	-1	-0,913
383,341	-3	-1,647
393,175	-7	-2,914
475,304	-11,5	-3,497
485,144	1,5	-0,277
494,989	-6	-2,388
504,834	-3,5	-1,969
514,68	-1,5	-1,238
524,513	-8,5	-3,2
534,365	1,5	-0,008
544,198	-10	-3,043
554,044	-3	-1,807
563,871	-4,5	-2,112
573,723	-3	-2,023
583,568	0,5	-0,254
593,413	-11,5	-3,475
603,241	1,5	-0,038
613,074	-11	-3,499
622,902	1,5	-0,001
632,735	-11	-3,497
642,581	1,5	0
652,408	-9	-2,833
662,235	-1	-1,019
672,069	-7	-2,553
681,914	-1,5	-1,467
764,122	-9	-3,327
773,943	1,5	-0,074
783,783	-10,5	-3,49
793,616	2	-0,001
803,455	-8	-2,803
813,301	-2	-1,612
823,134	-0,5	-0,908
832,968	-8	-3,301
842,801	1,5	-0,022
852,641	-10,5	-3,498
862,48	1,5	-0,026
872,319	-10,5	-3,255
882,159	0	-0,819
891,998	-3	-1,876
901,844	-2	-1,692
911,665	-2	-1,572
921,505	-3	-2,095
931,356	0	-0,37
941,184	-10,5	-3,478
951,011	1,5	-0,016
960,844	-10,5	-3,499
970,66	1,5	0
980,487	-10,5	-3,499
990,315	1,5	0
1000,154	-10,5	-3,22
1009,994	1	-0,486
1019,821	-7	-2,723
1029,66	-2,5	-1,87
1039,5	0	-0,458
1049,333	-9,5	-3,423
1059,155	1,5	-0,002
1068,994	-10,5	-3,433
1078,834	1,5	-0,008
1088,655	-6,5	-2,58
1098,476	-3	-2,048
1108,31	0,5	-0,201
1118,149	-10	-3,463
1127,989	1,5	-0,047
1137,804	-10,5	-3,496
1147,632	2	-0,002
1193,625	-10	-3,484
1203,452	1,5	-0,004
1213,28	-10,5	-3,439
1223,107	0	-0,686
1232,935	-4,5	-2,297
1242,768	-2,5	-1,976
1252,596	-1	-1,15
1262,423	-9	-3,44
1272,245	1,5	-0,003
1282,09	-9	-3,048
1291,923	-0,5	-0,844
1301,757	-1	-1,138
1311,584	-9	-3,425
1321,412	1,5	-0,036
1331,245	-10	-3,5
1341,073	0	-0,918
1350,9	-3	-1,937
1360,734	-2,5	-2,085
1370,561	0	-0,652
1380,388	-6,5	-3,087
1390,222	1	-0,16
1400,055	-5,5	-2,849
1409,883	0	-0,688
1419,716	-4,5	-2,644
1429,532	0	-0,734
1439,359	-7	-3,181
1449,186	1,5	-0,04
1459,02	-10	-3,495
1468,835	0,5	-0,561
1478,663	-3,5	-2,045
1488,484	-2,5	-2,062
1498,318	0	-0,604
1508,145	-10	-3,462
1517,997	1,5	-0,002
1527,83	-10	-3,475
1537,663	0	-0,682
1547,485	-3,5	-2,092
1557,306	-3	-2,09
1567,134	0	-0,528
1576,961	-9,5	-3,426
1586,795	1,5	-0,006
1596,634	-10	-3,5
1606,467	0	-0,716
1616,295	-3	-1,97
1626,128	-3,5	-2,287
1635,956	0	-0,59
1645,789	-9,5	-3,426
1655,605	1,5	-0,014
1665,444	-10	-3,498
1675,278	1,5	-0,021
1685,105	-7,5	-2,833
1694,932	-1	-1,274
1704,766	-2	-1,633
1714,593	-3,5	-2,376
1724,415	0	-0,492
1734,254	-9	-3,437
1744,088	1,5	-0,006
1753,915	-10	-3,499
1763,748	1	-0,495
1773,588	-4,5	-2,259
1783,397	-2	-1,958
1793,219	0	-0,864
1803,046	-7	-3,251
1812,868	1,5	-0,028
1822,701	-10	-3,497
1832,529	2	-0,031
1842,368	-7,5	-2,798
1852,183	-1	-1,185
1862,017	-2	-1,642
1871,838	-3,5	-2,465
1881,666	0	-0,38
1891,487	-9,5	-3,44
1901,309	2	-0,008
1911,142	-10	-3,499
1920,963	1,5	-0,434
1930,791	-5	-2,481
1940,618	-1,5	-1,666
1950,446	0	-1,004
1960,267	-5,5	-3,03
1970,083	1	-0,145
1979,91	-9,5	-3,47
1989,744	2	-0,006
1999,571	-10	-3,499
2009,399	1,5	-0,286
2019,22	-5,5	-2,566
2029,041	-1,5	-1,605
2038,875	-0,5	-1,264
2048,702	-5,5	-2,932
2058,53	1	-0,09
2068,357	-9,5	-3,478
2078,191	2	-0,003
2088,012	-10	-3,433
2097,833	0	-0,578
2107,667	-4,5	-2,323
2117,494	-2	-1,858
2127,316	-0,5	-1,134
2137,137	-5	-2,91
2146,959	1	-0,099
2156,792	-9,5	-3,481
2166,608	2	-0,002
2176,435	-10	-3,5
2186,262	1	-0,594
2196,078	-3,5	-2,14
2205,905	-2	-1,78
2215,739	-0,5	-1,112
2225,572	-5	-2,955
2235,388	1,5	-0,077
2245,221	-9,5	-3,49
2255,048	2	-0,002
2264,876	-9,5	-3,5
2274,703	0	-0,76
2284,519	-4,5	-2,267
2294,346	-2	-2,004
2304,174	0	-0,874
2314,007	-6	-3,186
2323,84	1,5	-0,052
2333,668	-9,5	-3,493
2343,495	1,5	-0,001
2353,317	-9,5	-3,305
2363,138	0	-0,653
2372,96	-4,5	-2,393
2382,781	-1,5	-1,581
2392,615	-0,5	-1,254
2402,436	-4,5	-2,783
2412,263	0,5	-0,258
2422,079	-8,5	-3,425
2431,882	1,5	-0,021
2441,716	-9,5	-3,496
2451,531	2	-0,001
2461,359	-8,5	-3,08
2471,186	-0,5	-1,058
2481,02	-2	-1,884
2490,847	-2,5	-2,241
2500,674	0	-0,674
2510,508	-7,5	-3,369
2520,335	2	-0,023
2530,163	-9	-3,496
2539,978	2	-0,001
2549,812	-9	-3,332
2559,627	0	-0,688
2569,466	-3	-2,177
2579,294	-2	-2,002
2589,121	0	-0,742
2598,955	-6	-3,281
2608,782	2	-0,031
2618,622	-8,5	-3,493
2628,449	2	-0,001
2638,277	-9	-3,255
2648,098	0	-0,717
2657,919	-2,5	-2,164
2667,747	-1,5	-1,793
2677,574	-1	-1,339
2687,402	-3,5	-2,777
2697,223	1	-0,154
2707,033	-7,5	-3,473
2716,848	1,5	-0,004
2726,663	-7,5	-3,499
2736,491	2	-0,108
2746,306	-5,5	-2,868
2756,134	-0,5	-1,11
2765,955	-1	-1,718
2775,771	-2,5	-2,28
2785,604	0	-0,758
2795,42	-4,5	-3,111
2805,241	1,5	-0,094
2815,074	-7	-3,485
2824,896	2	-0,003
2834,729	-7	-3,5
2844,539	1,5	-0,308
2854,354	-4,5	-2,809
2864,188	-0,5	-1,316
2874,015	-0,5	-1,608
2883,818	-1,5	-2,205
2893,646	0	-0,884
2903,467	-4,5	-3,246
2913,301	1,5	-0,037
2923,128	-7	-3,493
2932,962	2	-0,002
2942,777	-7	-3,5
2952,599	1,5	-0,179
2962,432	-5	-2,849
2972,259	-0,5	-1,197
2982,105	-1	-1,748
2991,92	-2	-2,323
3001,748	0	-0,847
3011,563	-4,5	-3,264
3021,385	2	-0,009
3031,212	-7	-3,498
3041,034	1,5	-0,001
3050,849	-6,5	-3,489
3060,67	1,5	-0,416
3070,498	-3	-2,588
3080,331	-0,5	-1,298
3090,159	-0,5	-1,425
3099,974	-3	-2,747
3109,802	0,5	-0,3
3119,623	-5,5	-3,427
3129,45	1,5	-0,008
3139,266	-6	-3,497
3149,081	2	-0,001
3158,903	-6	-3,248
3168,736	0	-0,934
3178,558	-1,5	-2,102
3188,385	-1	-1,946
3198,207	0	-1,084
3208,034	-3	-3,053
3217,849	0,5	-0,168
3227,671	-5,5	-3,453
3235,536	1,5	0