File: ensaios_Ciclicos/_60perc/_2gap/entrada/_5.txt
Time (s)	Load (N)	Displacement (mm)
108,365	-3	-1,385
112,169	-14	-3,5
115,972	-8,5	-2,854
119,794	0	-0,65
123,598	1	-0,065
127,396	-8,5	-2,31
131,199	-13,5	-3,479
135,003	-3	-1,621
138,801	1,5	-0,005
142,611	-3,5	-1,425
146,409	-14	-3,498
150,212	-5,5	-2,322
154,022	2	-0,001
157,844	0	-0,578
161,666	-12	-2,927
165,481	-12	-3,406
169,294	-1,5	-1,11
173,095	2	-0,012
176,911	-3,5	-1,536
289,326	-13	-3,485
293,148	-3,5	-1,887
296,97	1,5	-0,001
300,798	-0,5	-0,79
304,619	-12	-3,112
308,423	-9,5	-3,258
312,251	-0,5	-0,86
316,061	1,5	-0,056
319,865	-6	-2,14
323,681	-12,5	-3,492
327,508	-4	-2,082
331,324	1,5	-0,001
335,14	-0,5	-0,833
338,956	-12,5	-3,291
342,777	-9	-3,193
346,587	0	-0,85
350,409	1,5	-0,037
354,219	-5	-2,05
358,034	-12,5	-3,492
542,908	-12	-3,382
546,712	-7,5	-2,982
550,521	1	-0,49
554,331	1,5	-0,12
558,159	-6	-2,407
561,963	-11,5	-3,471
565,779	-2	-1,467
569,594	2	-0,006
573,404	-2	-1,506
577,22	-12	-3,499
581,036	-6	-2,656
584,833	2	-0,143
588,643	0,5	-0,338
592,453	-7,5	-2,677
596,281	-11,5	-3,461
600,097	-2,5	-1,446
603,906	2	-0,007
607,716	-2	-1,562
611,526	-12	-3,498
868,695	-2,5	-1,904
872,511	2	-0,001
876,333	0	-0,792
880,143	-10,5	-3,099
883,952	-8	-3,268
887,768	0	-0,715
891,572	1,5	-0,078
895,376	-6,5	-2,437
899,179	-11	-3,462
902,995	-2	-1,537
906,805	2	-0,005
910,609	-2	-1,468
914,419	-11,5	-3,499
918,228	-4,5	-2,517
922,044	2	-0,083
925,854	0,5	-0,343
929,664	-8,5	-2,836
933,467	-10	-3,42
937,265	-1	-1,091
941,087	2	-0,015
944,897	-2,5	-1,67
948,713	-11,5	-3,498
952,528	-4	-2,391
956,338	2	0
960,148	0	-0,443
963,958	-8	-2,749
967,774	-10,5	-3,46
971,583	-1,5	-1,522
975,399	2	-0,005
979,215	-1,5	-1,414
983,025	-11	-3,499
986,84	-5	-2,68
990,656	1,5	-0,263
994,466	0	-0,256
998,282	-7	-2,579
1002,092	-11	-3,462
1005,901	-1,5	-1,449
1009,711	2	-0,007
1121,971	-4,5	-2,515
1125,793	2	-0,022
1129,602	0,5	-0,32
1133,412	-8	-2,738
1137,222	-10	-3,437
1141,026	-1	-1,193
1144,829	2	-0,017
1148,639	-2,5	-1,698
1152,449	-11	-3,497
1156,259	-3,5	-2,228
1738,489	-10,5	-3,498
1742,299	-4	-2,554
1746,103	1,5	-0,366
1749,907	1	-0,113
1753,717	-4,5	-2,166
1757,526	-10,5	-3,496
1761,324	-3	-2,291
1765,128	2	-0,101
1768,938	0,5	-0,191
1772,742	-5	-2,37
1776,551	-10,5	-3,492
1780,367	-3	-2,202
1784,171	2	-0,003
1787,981	0	-0,383
1791,784	-6,5	-2,672
1795,588	-10	-3,47
1799,392	-1,5	-1,701
1803,196	2	-0,002
1807,006	0	-0,843
1810,815	-9	-2,942
1814,619	-9	-3,41
1818,435	-1	-1,379
1822,239	2	-0,006
1826,036	-0,5	-1,188
1829,852	-10,5	-3,444
1833,656	-7	-3,197
1837,466	-0,5	-1,022
1841,276	2	-0,013
1845,073	-2	-1,598
1848,877	-10,5	-3,499
1852,687	-4,5	-2,725
1856,503	1	-0,538
1860,313	1,5	-0,077
1864,122	-3	-1,974
1867,926	-10,5	-3,497
1871,748	-4	-2,582
1875,552	1,5	-0,346
1879,355	1	-0,162
1883,165	-4,5	-2,276
1886,969	-10	-3,489
1890,773	-2,5	-2,054
1894,577	2	-0,001
1898,38	0	-0,509
1902,19	-7	-2,747
1905,988	-9,5	-3,456
1909,792	-2	-1,65
1913,595	2	-0,002
2134,221	2	-0,014
2138,025	-1,5	-1,558
2141,84	-10	-3,499
2145,65	-5	-2,919
2149,46	0	-0,708
2153,27	1,5	-0,033
2157,074	-3	-1,829
2160,889	-10	-3,498
2164,693	-3,5	-2,555
2168,503	1,5	-0,412
2172,313	1	-0,1
2176,123	-4	-2,254
2179,926	-10	-3,49
2183,73	-2	-1,963
2187,528	2	-0,001
2191,338	0	-0,774
2195,141	-9,5	-3,102
2198,951	-8	-3,402
2202,755	-1	-1,451
2206,559	2	-0,004
2210,363	-0,5	-1,082
2214,172	-10	-3,28
2217,976	-7	-3,275
2221,78	-0,5	-1,049
2225,59	2	-0,016
2229,393	-1,5	-1,554
2233,209	-10	-3,499
2237,013	-5	-2,9
2240,817	0	-0,728
2244,627	1,5	-0,039
2248,43	-2,5	-1,869
2252,234	-10	-3,498
2256,044	-4	-2,598
2259,854	1,5	-0,327
2263,657	1	-0,13
2267,455	-4,5	-2,371
2271,265	-10	-3,486
2275,075	-2,5	-2,025
2278,885	2	-0,001
2282,688	0	-0,535
2286,498	-7	-2,746
2290,308	-9,5	-3,464
2294,112	-1,5	-1,613
2297,922	2	-0,002
2301,725	0	-0,893
2305,529	-9	-3,081
2309,345	-8,5	-3,404
2313,149	-1	-1,325
2316,958	2	-0,005
2320,762	-1	-1,243
2324,566	-10	-3,419
2328,37	-6	-3,154
2332,174	-0,5	-0,998
2335,983	2	-0,012
2339,787	-1,5	-1,567
2343,591	-10	-3,499
2347,395	-4	-2,694
2423,488	-1,5	-1,601
2427,298	2	-0,002
2431,108	0	-0,849
2434,918	-9	-3,05
2438,721	-8,5	-3,4
2442,531	-1	-1,341
2446,341	2	-0,006
2450,151	-1	-1,203
2453,961	-10	-3,349
2457,764	-6	-3,193
2461,568	-0,5	-0,91
2465,372	2	-0,022
2469,17	-2	-1,698
2472,98	-10	-3,499
2476,795	-5	-2,849
2480,599	0	-0,623
2484,409	1,5	-0,057
2488,219	-3	-2,022
2492,022	-10	-3,495
2495,826	-3	-2,397
2499,636	2	-0,131
2503,44	0,5	-0,296
2507,25	-5,5	-2,522
2511,059	-9,5	-3,482
2514,863	-2	-1,838
2518,667	2	-0,001
2522,477	0	-0,705
2526,287	-8	-2,826
2530,09	-9	-3,446
2533,912	-1,5	-1,641
2537,704	2	-0,003
2541,508	-0,5	-1,029
2545,311	-9	-3,198
2549,115	-8	-3,346
2552,919	-1	-1,219
2556,723	2	-0,01
2560,539	-0,5	-1,226
2564,336	-10	-3,489
2568,14	-6	-3,148
2571,968	-0,5	-1,06
2575,766	2	-0,024
2579,569	-1,5	-1,666
2583,373	-10	-3,499
2587,177	-4,5	-2,717
2590,987	0,5	-0,57
2594,791	1,5	-0,083
2598,6	-3	-2,079
2602,41	-10	-3,496
2606,214	-3	-2,326
2610,018	2	0
2613,821	0	-0,826
2617,625	-7,5	-2,928
2621,429	-8,5	-3,416
2625,233	-1	-1,295
2629,037	2	-0,012
2632,846	-1,5	-1,627
2636,65	-10	-3,498
2748,856	2	-0,006
2752,654	-1	-1,402
2756,457	-9,5	-3,5
2760,267	-5,5	-3,16
2764,083	-0,5	-1,102
2767,881	2	-0,012
2771,684	-1	-1,459
2775,488	-9,5	-3,499
2779,298	-5	-3,017
2783,108	0,5	-0,667
3003,751	2	-0,02
3007,57	-1	-1,638
3011,371	-7,5	-3,499
3015,181	-3,5	-2,791
3018,984	0,5	-0,604
3022,794	1,5	-0,066
3026,604	-2	-2,124
3030,408	-7,5	-3,494
3034,205	-1,5	-2,05
3110,299	-6,5	-3,5
3114,115	-3,5	-2,926
3117,913	1,5	-0,496
3121,716	1,5	-0,114
3125,52	-2,5	-2,417
3129,324	-6,5	-3,478
3133,122	-1	-1,696
3136,92	2	-0,003
3140,729	0	-1,16
3144,545	-6,5	-3,5
3184,467	-1	-1,774
3188,277	2	-0,003
3192,08	0	-1,194
3195,884	-6,5	-3,5
3199,694	-3	-2,93
3203,372	2	-0,001