File: ensaios_Ciclicos/_40perc/_1gap/entrada/_2.txt
Time (s)	Load (N)	Displacement (mm)
0	0,5	-0,035
10,787	-0,5	-0,676
21,454	0	-0,681
32,133	0,5	-0,636
42,807	0,5	-0,612
53,498	0	-0,68
64,19	1,5	-0,522
74,893	0	-0,686
85,578	-1	-0,936
96,276	-2,5	-1,114
106,967	-3	-1,318
117,647	-3,5	-1,47
128,338	-4,5	-1,711
139,029	-5	-1,851
149,733	-6	-2,069
160,43	-6,5	-2,14
171,097	-5,5	-1,97
181,819	-7	-2,261
192,516	-7	-2,246
203,202	-6	-2,15
213,917	-6,5	-2,246
224,626	-7,5	-2,392
235,33	-7,5	-2,366
246,027	-7	-2,34
256,731	-5	-1,956
267,434	-3,5	-1,679
278,167	-4,5	-1,8
288,871	-4,5	-1,827
299,58	-4	-1,787
310,295	-4,5	-1,921
321,017	-5	-2,042
331,726	-5,5	-2,103
342,448	-6,5	-2,293
353,163	-6,5	-2,272
363,866	-6,5	-2,304
374,582	-8	-2,522
385,291	-9	-2,776
396,013	-12	-3,157
406,722	-12,5	-3,206
417,443	-14	-3,326
428,183	-15,5	-3,446
438,892	-15,5	-3,455
449,613	-16	-3,441
460,329	-16,5	-3,484
471,044	-15,5	-3,439
481,778	-16	-3,472
492,487	-16,5	-3,488
503,208	-16,5	-3,497
513,936	-17	-3,5
524,657	-13	-2,766
535,373	-9	-2,339
546,1	-4,5	-1,658
556,833	-1	-0,844
567,537	0,5	-0,37
578,282	2	-0,062
589,016	3	-0,01
599,731	3	-0,005
610,464	3	-0,002
621,186	3	-0,001
631,889	3	-0,063
642,604	2	-0,434
653,314	0	-0,841
664,035	-2	-1,372
674,757	-4	-1,972
685,484	-6,5	-2,495
696,199	-11	-3,118
706,939	-15	-3,442
717,666	-15,5	-3,479
728,376	-16	-3,496
739,073	-16	-3,498
749,789	-15,5	-3,499
760,504	-15,5	-3,341
771,231	-14	-3,027
781,946	-11,5	-2,728
792,674	-8	-2,353
803,389	-6	-2,162
814,099	-5	-1,936
824,814	-4	-1,728
835,53	-3	-1,493
846,257	-2	-1,268
856,966	-1,5	-1,254
867,67	-1,5	-1,298
878,385	-1	-1,057
889,094	-1	-1,022
899,804	-0,5	-0,919
910,519	-0,5	-0,972
921,229	-0,5	-0,995
931,95	-1,5	-1,135
942,671	-0,5	-0,944
953,393	0	-0,68
964,108	-0,5	-0,887
974,829	0	-0,532
985,545	0	-0,541
996,248	0	-0,436
1006,952	0	-0,448
1017,655	0,5	-0,342
1028,37	0,5	-0,294
1039,086	0	-0,549
1049,789	-0,5	-0,761
1060,511	-0,5	-0,74
1071,214	0,5	-0,369
1081,917	1,5	-0,133
1092,645	2,5	-0,044
1103,372	3	-0,02
1114,088	3,5	-0,006
1124,791	3,5	-0,004
1135,488	3,5	-0,002
1146,21	3,5	-0,002
1156,907	3,5	-0,002
1167,628	3,5	-0,002
1178,338	3	-0,002
1189,059	3,5	-0,003
1199,781	3	-0,007
1210,472	3	-0,02
1221,181	2,5	-0,065
1231,867	1,5	-0,191
1242,57	0,5	-0,367
1253,28	0	-0,741
1263,977	-0,5	-0,862
1274,692	-1	-1,032
1285,384	-1,5	-1,242
1296,075	-2,5	-1,467
1306,761	-3,5	-1,692
1317,452	-5	-1,917
1328,149	-5	-1,948
1338,859	-3	-1,648
1349,568	-2,5	-1,373
1360,271	-2,5	-1,421
1370,969	-1,5	-1,256
1381,672	-1	-1,114
1392,376	-1	-1,146
1403,079	-1	-1,163
1413,77	-1	-1,186
1424,468	-0,5	-0,904
1435,153	0	-0,621
1445,845	-0,5	-0,867
1456,548	0	-0,832
1467,233	-0,5	-1,066
1477,925	-1	-1,042
1488,623	-3	-1,448
1499,326	-3	-1,638
1510,029	-7	-2,308
1520,72	-9	-2,507
1531,412	-13	-2,972
1542,103	-15	-3,5
1552,8	-14,5	-3,499
1563,486	-15	-3,498
1574,177	-14,5	-3,498
1584,875	-15	-3,498
1595,572	-14,5	-3,499
1606,269	-15	-3,432
1616,961	-14,5	-3,178
1627,658	-10,5	-2,788
1638,35	-8	-2,481
1649,053	-6	-2,152
1659,738	-4,5	-1,961
1670,43	-4,5	-1,869
1681,127	-4,5	-1,947
1691,825	-4,5	-1,919
1702,516	-6,5	-2,268
1713,207	-9	-2,562
1723,905	-7	-2,248
1734,596	-6	-2,238
1745,293	-4	-1,881
1755,985	-4,5	-1,894
1766,67	-2,5	-1,597
1777,356	-3	-1,624
1788,047	-3,5	-1,802
1798,744	-2,5	-1,481
1809,442	-1	-1,16
1820,145	1	-0,306
1830,837	2,5	-0,075
1841,528	3	-0,013
1852,213	3,5	-0,002
1862,911	3	-0,053
1873,596	2,5	-0,397
1884,288	0	-0,736
1894,979	-1	-1,164
1905,676	-2	-1,666
1916,362	-3,5	-2,017
1927,059	-5,5	-2,549
1937,744	-8	-2,904
1948,442	-11	-3,27
1959,139	-11,5	-3,336
1969,831	-13	-3,439
1980,522	-13,5	-3,444
1991,225	-13,5	-3,461
2001,911	-14	-3,479
2012,602	-14	-3,497
2023,294	-14,5	-3,498
2033,997	-14,5	-3,249
2044,682	-13,5	-3,088
2055,38	-10,5	-2,768
2066,071	-6	-2,302
2076,769	-5	-1,96
2087,466	-3,5	-1,804
2098,151	-2,5	-1,603
2108,843	-1	-1,148
2119,534	-0,5	-1,054
2130,231	0	-0,868
2140,923	-0,5	-0,875
2151,614	-1	-1,175
2162,306	-1,5	-1,332
2172,997	-8	-2,536
2183,694	-10,5	-2,805
2194,398	-14	-3,5
2205,095	-14	-3,497
2215,793	-10,5	-3,33
2226,478	-8,5	-3,151
2237,175	-7	-2,918
2247,867	-4	-2,256
2258,558	-1,5	-1,521
2269,249	0	-0,928
2279,941	3	-0,242
2290,644	3,5	-0,002
2301,336	3,5	-0,004
2312,027	3,5	-0,003
2322,724	3	-0,01
2333,422	3	-0,006
2344,113	3	-0,004
2354,817	3,5	-0,002
2365,508	3	-0,002
2376,199	3	-0,009
2386,897	3	-0,014
2397,594	3	-0,037
2408,286	2,5	-0,075
2418,977	3	-0,04
2429,656	3,5	-0,014
2440,354	3	-0,009
2451,033	3	-0,016
2461,719	3	-0,046
2472,404	2	-0,138
2483,095	1	-0,326
2493,787	0,5	-0,539
2504,478	-0,5	-1,136
2515,175	-3	-1,723
2525,867	-2	-1,559
2536,552	-1	-1,253
2547,244	-1	-1,308
2557,935	-0,5	-1,087
2568,632	0	-0,921
2579,33	0	-0,93
2590,021	0	-0,757
2600,713	0	-0,514
2611,398	1	-0,452
2622,095	1	-0,397
2632,787	1,5	-0,217
2643,478	1,5	-0,214
2654,164	1	-0,312
2664,861	0	-0,561
2675,54	0,5	-0,437
2686,22	0,5	-0,394
2696,911	1	-0,2
2707,597	1,5	-0,148
2718,288	2	-0,081
2728,979	2,5	-0,052
2739,665	3	-0,044
2750,362	3	-0,025
2761,053	3	-0,019
2771,769	3	-0,016
2782,448	3	-0,036
2793,14	3	-0,024
2803,831	2	-0,099
2814,516	2,5	-0,06
2825,208	1	-0,412
2835,893	0	-1,156
2846,591	-2,5	-1,952
2857,282	-4,5	-2,487
2867,967	-8,5	-3,088
2878,659	-10	-3,499
2889,35	-10	-3,495
2900,03	-9,5	-3,478
2910,715	-7	-3,324
2921,412	-2,5	-2,27
2932,104	-3	-2,304
2942,795	-2,5	-2,186
2953,486	-1	-1,62
2964,178	0	-0,703
2974,875	2	-0,437
2985,567	3	-0,001
2996,264	3	-0,001
3006,949	3	-0,004
3017,635	3	-0,019
3028,32	2	-0,115
3039,012	1,5	-0,262
3049,703	1	-0,248
3060,388	1	-0,394
3071,074	1	-0,428
3081,765	0,5	-0,387
3092,456	1	-0,335
3103,154	1	-0,223
3113,839	1,5	-0,172
3124,519	1	-0,297
3135,21	1	-0,414
3145,901	0,5	-0,567
3156,587	0,5	-0,668
3167,278	0,5	-0,617
3177,97	0,5	-0,508
3188,661	1	-0,6
3199,352	0,5	-0,673
3208,406	3	-0,001