File: ensaios_Ciclicos/_40perc/_1gap/entrada/_3.txt
Time (s)	Load (N)	Displacement (mm)
0	0	-0,03
10,703	1	-0,019
21,28	1	-0,004
31,851	1,5	-0,006
42,423	1,5	-0,007
52,982	1,5	-0,004
63,584	1,5	-0,006
74,167	1,5	-0,002
84,756	1,5	-0,001
95,34	1,5	-0,006
105,953	1,5	-0,008
116,537	1,5	-0,049
127,12	1,5	-0,065
137,721	1	-0,102
148,353	2	-0,028
158,93	1,5	-0,032
169,526	2	-0,007
180,121	2	-0,004
190,722	2	-0,001
201,336	2	-0,001
211,943	1,5	-0,001
222,545	2	-0,002
233,14	2	-0,002
243,735	2	-0,002
254,373	2	-0,294
264,992	1	-0,529
275,611	1	-0,512
286,231	-2	-1,049
296,863	-4,5	-1,645
307,482	-6	-2,005
318,107	-7	-2,242
328,726	-9	-2,544
339,346	-8	-2,395
349,989	-9	-2,503
360,621	-9,5	-2,6
371,258	-11,5	-2,88
381,877	-10,5	-2,73
392,503	-9,5	-2,627
403,152	-12	-2,92
413,772	-12	-2,908
424,379	-10,5	-2,741
434,999	-10,5	-2,741
445,606	-9,5	-2,696
456,225	-9	-2,62
466,862	-12,5	-3,081
477,488	-16,5	-3,416
488,108	-17,5	-3,46
498,733	-18	-3,475
509,346	-18	-3,484
519,953	-18	-3,493
530,567	-18	-3,499
541,198	-17	-3,077
551,824	-15	-3,004
562,449	-15	-2,912
573,086	-13	-2,716
583,724	-11,5	-2,605
594,349	-11	-2,533
604,963	-11	-2,534
615,57	-12	-2,593
626,183	-11,5	-2,592
636,803	-11,5	-2,584
647,434	-11,5	-2,565
658,054	-10,5	-2,432
668,673	-10	-2,29
679,286	-9	-2,226
689,912	-8,5	-2,128
700,543	-7	-1,919
711,145	-6	-1,861
721,77	-6	-1,789
732,371	-5,5	-1,79
742,979	-6	-1,864
753,598	-5	-1,734
764,23	-4	-1,589
774,849	-4,5	-1,649
785,462	-4	-1,52
796,07	-3,5	-1,464
806,683	-2,5	-1,16
817,296	-1,5	-0,999
827,91	-1	-0,923
838,523	-2	-1,019
849,155	-1	-0,832
859,774	-0,5	-0,673
870,387	0	-0,546
881,007	0	-0,588
891,62	0	-0,475
902,234	0,5	-0,214
912,853	1,5	-0,139
923,454	1	-0,126
934,062	1,5	-0,116
944,687	2	-0,064
955,301	2	-0,032
965,914	2,5	-0,028
976,527	2	-0,023
987,135	2,5	-0,011
997,736	2,5	-0,006
1008,356	2,5	-0,004
1018,963	2,5	-0,002
1029,57	2,5	-0,001
1040,184	2,5	-0,001
1050,791	2,5	0
1061,399	2,5	-0,131
1072,006	2,5	-0,078
1082,607	2	-0,472
1093,221	0,5	-0,622
1103,834	-0,5	-0,814
1114,442	-1,5	-0,999
1125,043	-2	-1,168
1135,656	-1,5	-1,052
1146,264	-1,5	-1,019
1156,871	-1	-0,941
1167,478	-1,5	-1,136
1178,092	-2	-1,142
1188,693	-1,5	-1,042
1199,307	-1,5	-1,032
1209,908	-1	-0,994
1220,516	1,5	-0,544
1231,123	0	-0,612
1241,718	0	-0,657
1252,338	0	-0,681
1262,939	2,5	-0,318
1273,54	2,5	-0,124
1284,148	2,5	-0,031
1294,749	2,5	-0,184
1305,363	2	-0,332
1315,97	1,5	-0,501
1326,577	0	-0,642
1337,185	0	-0,762
1347,786	-2	-1,209
1358,388	-1,5	-1,22
1368,983	-3	-1,604
1379,584	-3	-1,688
1390,192	-4	-1,899
1400,787	-3,5	-1,991
1411,401	-4,5	-2,172
1422,002	-5	-2,283
1432,603	-6	-2,548
1443,205	-7,5	-2,708
1453,806	-8	-2,724
1464,401	-7,5	-2,708
1475,009	-9	-2,882
1485,616	-11	-3,232
1496,224	-13	-3,335
1506,825	-14,5	-3,431
1517,432	-14,5	-3,444
1528,028	-15	-3,466
1538,647	-15	-3,491
1549,249	-15	-3,496
1559,868	-15	-3,498
1570,469	-15	-3,432
1581,077	-15,5	-3,015
1591,684	-10,5	-2,714
1602,292	-8	-2,344
1612,881	-7,5	-2,304
1623,488	-5,5	-2,034
1634,096	-3	-1,654
1644,703	-2	-1,321
1655,305	-1	-0,965
1665,9	-0,5	-0,698
1676,501	0	-0,284
1687,103	1	-0,147
1697,71	1,5	-0,054
1708,306	1,5	-0,056
1718,913	2	-0,02
1729,52	2,5	-0,01
1740,116	2,5	-0,012
1750,711	2,5	-0,015
1761,312	2	-0,034
1771,908	1,5	-0,066
1782,503	0,5	-0,184
1793,105	0	-0,448
1803,694	-1	-0,993
1814,313	-2	-1,366
1824,903	-4	-1,836
1835,498	-5,5	-2,021
1846,1	-7,5	-2,328
1856,683	-9,5	-2,622
1867,29	-11	-2,747
1877,88	-10,5	-2,775
1888,481	-11,5	-2,845
1899,077	-13,5	-2,987
1909,684	-13	-3,02
1920,285	-12	-2,941
1930,881	-13,5	-3,09
1941,488	-13	-3,012
1952,09	-12,5	-2,948
1962,685	-12	-2,942
1973,292	-10,5	-2,703
1983,894	-9	-2,688
1994,501	-9,5	-2,654
2005,097	-9	-2,641
2015,686	-8	-2,499
2026,281	-4	-1,849
2036,889	-3,5	-1,813
2047,49	-3	-1,672
2058,08	-2,5	-1,525
2068,681	-2	-1,334
2079,282	-1,5	-1,175
2089,878	-0,5	-0,949
2100,491	0	-0,518
2111,086	1	-0,236
2121,7	0,5	-0,198
2132,313	1	-0,157
2142,921	1	-0,106
2153,528	1,5	-0,08
2164,135	1,5	-0,071
2174,725	2	-0,059
2185,338	2	-0,037
2195,934	2	-0,046
2206,535	2	-0,038
2217,142	2	-0,047
2227,732	1,5	-0,057
2238,333	1,5	-0,101
2248,941	1,5	-0,097
2259,542	1,5	-0,105
2270,137	1,5	-0,093
2280,745	2	-0,036
2291,334	2,5	-0,021
2301,942	2,5	-0,013
2312,555	2,5	-0,015
2323,15	2,5	-0,01
2333,746	2,5	-0,011
2344,347	2,5	-0,012
2354,937	2,5	-0,014
2365,538	2,5	-0,015
2376,133	2,5	-0,012
2386,747	2,5	-0,012
2397,354	2,5	-0,009
2407,95	2,5	-0,008
2418,539	3	-0,006
2429,134	2,5	-0,007
2439,736	2,5	-0,006
2450,325	2,5	-0,007
2460,915	2,5	-0,006
2471,504	2,5	-0,008
2482,099	2,5	-0,007
2492,695	2,5	-0,006
2503,296	3	-0,003
2513,892	2,5	-0,002
2524,493	2,5	-0,001
2535,082	2,5	-0,001
2545,696	2,5	-0,092
2556,285	2,5	-0,179
2566,874	2,5	-0,227
2577,476	1	-0,43
2588,071	0	-0,736
2598,685	-1	-1,05
2609,286	-1,5	-1,529
2619,882	-2,5	-1,945
2630,477	-4	-2,366
2641,072	-5,5	-2,868
2651,68	-6,5	-3,12
2662,275	-9	-3,409
2672,876	-10	-3,464
2683,484	-10,5	-3,49
2694,085	-10,5	-3,494
2704,675	-10,5	-3,498
2715,27	-10,5	-3,499
2725,871	-10	-3,499
2736,473	-10	-3,466
2747,068	-10	-3,381
2757,658	-10	-3,492
2768,265	-10	-3,5
2778,86	-10	-3,498
2789,456	-10	-3,491
2800,045	-9,5	-3,458
2810,653	-6,5	-3,192
2821,254	-4	-2,697
2831,849	-3	-2,354
2842,457	-2,5	-2,144
2853,058	-2	-1,915
2863,642	-1,5	-1,83
2874,231	-1,5	-1,824
2884,832	-1	-1,589
2895,434	-1	-1,482
2906,035	0	-0,817
2916,631	1,5	-0,505
2927,232	1	-0,573
2937,827	0	-0,792
2948,429	0	-0,898
2959,03	-0,5	-1,09
2969,625	-0,5	-1,34
2980,215	-1,5	-1,488
2990,804	-1,5	-1,576
3001,4	-1,5	-1,86
3011,977	-2	-2,037
3022,572	-2,5	-2,166
3033,174	-3	-2,57
3043,769	-4	-2,832
3054,383	-5	-3,224
3064,99	-7,5	-3,443
3075,585	-8	-3,474
3086,175	-8	-3,482
3096,776	-8,5	-3,494
3107,372	-8	-3,498
3117,967	-8	-3,499
3128,562	-7,5	-3,5
3139,152	-7,5	-3,357
3149,741	-7,5	-3,388
3160,343	-7	-3,115
3170,95	-4	-2,692
3176,056	2,5	-0,001