File: Cycling_tests/_20perc/_1gap/entrada/_1.txt
Time (s)	Load (N)	Displacement (mm)
40,932	-1	-0,705
50,532	-28	-2,983
59,591	-3	-0,678
68,963	-6,5	-1,505
78,058	-28,5	-3,481
87,022	-24	-2,76
96,489	3	-0,001
105,428	-7,5	-1,65
114,248	-16,5	-2,761
123,632	-13,5	-1,986
132,679	3	-0,038
141,763	-2	-0,972
151,104	-28	-3,498
160,013	-19	-2,506
208,436	-5	-1,459
217,256	-14	-2,592
226,081	-25	-3,431
234,781	-26	-3,478
243,576	-26,5	-3,499
252,15	-26,5	-3,499
260,826	-26	-3,352
269,975	-0,5	-0,644
278,711	2	-0,128
326,353	3,5	-0,206
335,077	-0,5	-0,744
343,776	-3,5	-1,255
352,704	-17	-3,092
361,26	-14,5	-2,803
369,893	-16	-2,974
378,448	-16,5	-2,983
387,388	-24,5	-3,498
395,839	-24	-3,475
442,387	0	-0,676
450,906	3	-0,327
459,336	4	-0,002
467,718	4	-0,025
476,165	2,5	-0,128
484,912	4	-0,013
493,33	2	-0,176
501,717	-2,5	-1,107
510,135	-8	-1,823
556,074	3	-0,492
564,426	4	-0,004
572,873	3,5	-0,036
581,243	-1	-0,867
589,648	-9	-1,921
598,024	-22,5	-3,052
606,351	-23,5	-3,496
614,728	-19,5	-3,38
697,69	4	-0,005
705,988	0	-0,499
714,729	3,5	-0,061
723,051	-2	-1,124
731,39	-13	-2,432
814,072	3	-0,421
822,357	4	-0,008
830,637	0	-0,728
838,982	-7	-1,907
847,31	-22,5	-3,276
855,577	-22	-3,469
863,863	-7,5	-2,29
872,136	0,5	-0,713
880,404	4	-0,006
1035,627	-7,5	-2,349
1043,864	2	-0,635
1052,054	4	-0,024
1060,261	-4	-1,412
1068,469	-21,5	-3,359
1076,724	-21	-3,475
1084,944	-7	-2,239
1093,128	4	-0,241
1101,317	3	-0,088
1109,501	-7,5	-1,903
1117,732	-21,5	-3,499
1125,964	-16,5	-3,317
1134,171	-2,5	-1,354
1398,336	0	-0,77
1406,538	4,5	-0,01
1414,715	-2	-1,257
1423,301	-2	-1,248
1431,532	-20,5	-3,082
1439,794	-20,5	-3,474
1447,959	-3,5	-1,726
1456,179	4	-0,012
1464,375	2	-0,16
1472,588	-6,5	-1,998
1480,759	-20,5	-3,498
1488,967	-13,5	-3,081
1497,12	-1	-0,895
1505,334	4,5	-0,006
1513,524	-1	-0,975
1521,743	-16	-2,833
1529,945	-20	-3,482
1538,128	-5	-2,103
1546,324	4	-0,022
1554,495	1	-0,266
1562,679	-9	-2,235
1570,856	-20,5	-3,497
1579,088	-11	-2,935
1587,691	-12,5	-3,002
1595,899	-1,5	-1,07
1604,094	4	-0,006
1612,302	-0,5	-0,922
1620,492	-17,5	-2,972
1628,675	-19,5	-3,469
1636,859	-4,5	-1,993
1645,048	4	0
1653,244	1	-0,312
1661,439	-11	-2,412
1669,665	-20,5	-3,496
1677,86	-9	-2,797
1686,032	1	-0,642
1694,215	3,5	-0,024
1702,411	-3	-1,422
1710,6	-20,5	-3,314
1718,772	-16,5	-3,361
1726,949	-2	-1,218
1735,145	4	-0,004
1743,334	-0,5	-0,912
1751,542	-14	-2,765
1759,702	-19,5	-3,46
1768,167	-15	-3,285
1776,375	-2,5	-1,388
1784,564	4	-0,002
1792,748	0,5	-0,478
1800,931	-10	-2,372
1809,121	-20	-3,494
1817,286	-7	-2,412
1825,44	3,5	-0,318
1833,629	3,5	-0,044
1841,825	-3	-1,544
1850,008	-20	-3,5
1858,57	-19,5	-3,499
1866,741	-13	-3,113
1874,925	-2	-1,262
1883,084	4	-0,003
1891,238	-0,5	-0,957
1899,415	-15	-2,869
1907,587	-19,5	-3,469
1915,747	-5	-2,071
1923,888	4	-0,001
1932,066	2,5	-0,136
1940,249	-5	-1,911
1948,421	-19,5	-3,498
1956,574	-9,5	-2,755
1964,752	-0,5	-0,793
1972,887	4	-0,015
1981,029	-1,5	-1,249
1989,182	-19,5	-3,354
1997,342	-15	-3,372
2005,519	-2,5	-1,438
2013,661	4	-0,003
2021,808	-1,5	-1,171
2029,986	-19	-3,139
2038,146	-16,5	-3,377
2046,311	-3	-1,542
2054,453	4	-0,003
2062,6	-1,5	-1,062
2070,736	-19,5	-3,195
2078,907	-15,5	-3,365
2087,031	-1,5	-1,203
2095,178	4	-0,004
2103,32	-1,5	-1,215
2111,491	-19,5	-3,225
2119,645	-16,5	-3,393
2127,792	-2,5	-1,498
2135,928	4	-0,004
2144,064	-1	-1,048
2152,229	-19	-3,1
2160,365	-17	-3,415
2168,488	-2	-1,246
2176,63	4	-0,01
2184,765	-2,5	-1,403
2192,931	-19,5	-3,497
2201,102	-14,5	-3,313
2209,268	-1	-1,11
2217,397	4	-0,014
2225,551	-2,5	-1,312
2233,728	-19,5	-3,359
2241,87	-15	-3,308
2250,029	-1,5	-1,038
2258,183	4	-0,009
2266,337	-2	-1,343
2274,49	-19	-3,5
2282,62	-11	-3,032
2290,791	-0,5	-0,925
2298,927	4	-0,018
2307,104	-2,5	-1,433
2315,246	-19	-3,5
2323,405	-12	-3,07
2331,571	-1	-1,033
2339,724	4	-0,016
2347,872	-2,5	-1,458
2356,001	-19	-3,499
2364,137	-9	-2,843
2372,29	0	-0,731
2380,456	4	-0,03
2388,604	-3	-1,7
2396,733	-18,5	-3,499
2404,875	-7,5	-2,657
2413,022	2	-0,477
2421,194	4	-0,041
2429,329	-5,5	-2,048
2437,477	-19	-3,496
2445,594	-5	-2,248
2453,73	4	0
2461,859	0	-0,652
2469,977	-14	-2,982
2478,094	-14,5	-3,368
2486,248	-2	-1,302
2494,378	4	-0,008
2502,507	-2	-1,442
2510,643	-17,5	-3,499
2518,79	-7	-2,73
2526,932	4	-0,253
2535,061	1,5	-0,239
2543,209	-9	-2,457
2551,338	-16,5	-3,467
2559,498	-3	-1,82
2567,633	4	-0,004
2575,787	-0,5	-1,059
2583,94	-17	-3,348
2592,094	-11,5	-3,244
2600,247	-1	-1,068
2608,371	4	-0,02
2616,5	-3	-1,685
2624,624	-17	-3,498
2632,754	-6	-2,541
2640,889	4	-0,233
2649,055	2,5	-0,136
2657,202	-7,5	-2,318
2665,356	-16,5	-3,495
2673,485	-4,5	-2,19
2681,645	4	0
2689,768	0,5	-0,448
2697,934	-10,5	-2,667
2706,093	-16	-3,481
2714,241	-3	-1,728
2722,383	4	-0,002
2730,506	0	-1,103
2738,672	-16	-3,261
2746,825	-12,5	-3,348
2754,955	-0,5	-1,05
2763,096	4	-0,019
2771,226	-1	-1,522
2779,361	-14	-3,499
2787,491	-5,5	-2,667
2795,644	3	-0,48
2803,774	3	-0,115
2811,927	-3	-2,197
2820,087	-12,5	-3,494
2828,216	-3,5	-2,197
2836,406	4	-0,005
2844,541	1,5	-0,398
2852,683	-6	-2,671
2860,813	-11,5	-3,457
2868,96	-1,5	-1,573
2877,102	4	-0,004
2885,255	0,5	-0,894
2893,415	-10	-3,079
2901,538	-8,5	-3,324
2909,668	-1	-1,162
2917,827	4	-0,008
2925,969	0	-1,212
2934,104	-11,5	-3,4
2942,246	-8,5	-3,295
2950,393	-1	-1,183
2958,523	4	-0,013
2966,652	-0,5	-1,647
2974,782	-11,5	-3,498
2982,948	-4,5	-2,708
2991,095	2,5	-0,592
2999,237	3	-0,066
3007,366	-3	-2,288
3015,508	-11	-3,493
3023,661	-2,5	-2,301
3031,803	4	-0,187
3039,932	2	-0,208
3048,056	-5	-2,586
3056,209	-10,5	-3,478
3064,351	-1,5	-1,759
3072,486	4	-0,002
3080,634	0,5	-0,806
3088,77	-8,5	-2,978
3096,905	-9	-3,432
3105,047	-1	-1,587
3113,17	4	-0,002
3121,318	1	-0,778
3129,453	-8	-2,933
3137,985	-9	-3,056
3146,138	-9	-3,433
3154,28	-1	-1,63
3162,415	4	-0,002
3170,545	0,5	-0,951
3178,668	-10	-3,31
3186,816	-7,5	-3,367
3194,957	-0,5	-1,245
3203,099	4	-0,008
3211,223	0	-1,309
3219,352	-10	-3,5
3220,408	4	-0,001