File: Cycling_tests/_20perc/_1gap/entrada/_2.txt
Time (s)	Load (N)	Displacement (mm)
41,478	-22,5	-3,227
50,754	-17,5	-2,23
59,573	-5	-0,933
68,387	2,5	-0,049
77,621	-8	-1,667
206,379	-3	-1,02
214,857	1,5	-0,495
223,67	-6,5	-1,667
232,225	-5,5	-1,445
240,673	-1	-0,833
249,522	-7,5	-1,837
257,958	-3,5	-1,06
266,357	4	-0,002
274,805	4	-0,004
322,034	4	-0,024
330,362	-3	-0,972
339,067	-0,5	-0,558
347,425	-9	-1,688
355,824	-20	-2,765
364,146	-24,5	-3,498
372,869	-24,5	-3,498
381,113	-22,5	-3,415
389,374	-5,5	-1,705
435,95	0,5	-0,305
444,187	-12	-2,108
452,335	-24	-3,494
460,596	-13	-2,669
469,152	-10	-2,422
515,397	-2,5	-0,97
523,545	-24	-3,375
531,686	-18	-3,248
540,152	-11,5	-2,552
548,299	4	-0,158
556,459	1	-0,231
564,588	-16,5	-2,636
572,688	-21,5	-3,408
580,859	-3,5	-1,302
663,631	-23,5	-3,375
671,736	-12	-2,718
679,8	4	-0,001
687,905	-0,5	-0,667
696,017	-23,5	-3,418
778,158	-22,5	-3,165
786,192	-12	-2,812
794,297	4	-0,148
802,361	-0,5	-0,678
810,388	-23	-3,499
818,434	-9	-2,39
826,533	4	-0,001
834,561	-4,5	-1,358
842,552	-22,5	-3,49
960,806	-8	-2,274
968,773	4	-0,008
976,795	-10	-2,123
984,775	-19,5	-3,392
992,754	3,5	-0,402
1000,733	-2	-0,949
1008,713	-22,5	-3,496
1016,735	-4	-1,469
1024,696	2	-0,11
1032,657	-22	-3,45
1040,613	-6,5	-2,12
1048,575	4	-0,008
1056,536	-14,5	-2,522
1064,522	-15	-3,088
1072,495	4	-0,097
1080,451	-3,5	-1,328
1088,4	-22	-3,49
1096,38	-3,5	-1,378
1104,365	3	-0,072
1112,309	-18	-2,878
1120,288	-12,5	-2,893
1128,25	4,5	-0,002
1136,236	-6	-1,769
1327,103	-10,5	-2,817
1335,1	4	0
1343,032	-4,5	-1,544
1350,993	-21	-3,477
1358,961	0	-0,762
1366,91	-0,5	-0,718
1374,914	-21,5	-3,499
1382,882	-4	-1,65
1390,819	3	-0,082
1398,763	-21	-3,412
1406,688	-5,5	-1,985
1414,662	4	-0,019
1422,612	-14,5	-2,689
1430,573	-11	-2,863
1438,894	-3	-1,442
1446,826	1,5	-0,169
1454,769	-21	-3,479
1462,713	-6	-2,017
1470,645	4	-0,025
1478,606	-18	-2,939
1486,538	-7,5	-2,324
1494,475	4	-0,008
1502,437	-12,5	-2,481
1510,398	-14,5	-3,146
1518,744	-4	-1,707
1526,693	4	-0,043
1534,661	-16,5	-2,834
1542,61	-11,5	-2,818
1550,584	4	-0,001
1558,515	-4,5	-1,631
1566,459	-19,5	-3,452
1574,397	3	-0,446
1582,352	-1	-0,95
1590,326	-20,5	-3,498
1598,251	-3	-1,35
1606,225	3	-0,11
1614,192	-20,5	-3,309
1622,142	-6	-2,227
1630,086	4,5	-0,006
1638,017	-11,5	-2,421
1645,955	-14	-3,128
1653,892	4	-0,126
1661,83	-2	-1,185
1669,761	-20,5	-3,495
1677,705	-3	-1,299
1685,63	2	-0,182
1693,604	-20,5	-3,259
1701,541	-7,5	-2,341
1709,461	4,5	-0,006
1717,392	-7,5	-2,006
1725,336	-19,5	-3,456
1733,297	0	-0,792
1741,223	0	-0,515
1749,161	-20,5	-3,499
1757,092	-6	-2,178
1765,03	4	-0,004
1772,979	-8	-2,054
1780,911	-19	-3,437
1788,854	1	-0,708
1796,816	0	-0,548
1804,76	-20,5	-3,499
1812,715	-5,5	-2,065
1820,64	4,5	-0,01
1828,578	-10,5	-2,323
1836,516	-15	-3,318
1844,435	4	0
1852,361	-3	-1,387
1860,274	-20	-3,487
1868,176	-1,5	-1,091
1876,143	2,5	-0,088
1884,093	-19	-3,099
1892,024	-9	-2,602
1899,95	4	-0,002
1907,881	-6	-1,858
1915,813	-19,5	-3,464
1923,721	1	-0,732
1931,634	0	-0,642
1939,548	-20	-3,499
2056,415	-3	-1,524
2064,305	3	-0,09
2072,212	-19	-3,241
2080,096	-7,5	-2,434
2088,015	4	-0,003
2095,899	-7	-2,089
2103,819	-16	-3,351
2111,708	4,5	-0,029
2119,633	-2	-1,29
2127,559	-19,5	-3,49
2135,436	-1	-0,902
2143,338	0	-0,59
2151,252	-19,5	-3,499
2159,165	-4	-1,84
2167,067	4	-0,036
2174,986	-14,5	-2,844
2182,918	-10,5	-2,883
2190,826	4	-0,002
2198,733	-5	-1,848
2206,611	-16	-3,4
2214,53	4	-0,17
2222,408	-2,5	-1,46
2230,345	-18,5	-3,488
2238,247	0	-0,754
2246,172	0	-0,619
2254,062	-18,5	-3,498
2261,951	-2,5	-1,422
2269,895	3	-0,075
2277,826	-18	-3,201
2285,722	-5,5	-2,257
2293,623	4,5	-0,008
2301,513	-11	-2,55
2309,415	-8,5	-2,803
2317,31	4,5	-0,002
2325,236	-5,5	-1,87
2333,155	-16	-3,433
2341,063	4	-0,35
2348,958	-1,5	-1,264
2356,848	-18	-3,478
2364,737	1	-0,669
2372,663	0	-0,608
2380,57	-18	-3,498
2388,466	-2,5	-1,528
2396,368	2,5	-0,112
2404,281	-18	-3,494
2412,183	-4,5	-2,092
2420,084	4	-0,032
2427,98	-17,5	-3,17
2435,881	-5	-2,146
2443,783	4	-0,034
2451,702	-15	-2,958
2459,61	-6	-2,426
2467,541	4,5	-0,004
2475,455	-7,5	-2,303
2483,351	-10,5	-3,015
2491,27	4,5	-0,002
2499,196	-5	-1,963
2507,121	-14,5	-3,39
2515,041	4,5	-0,003
2522,942	-2,5	-1,498
2530,85	-15,5	-3,475
2538,739	3	-0,484
2546,641	-1	-1,178
2554,537	-15,5	-3,482
2562,456	0	-0,788
2570,364	0	-0,85
2578,253	-15	-3,496
2586,149	-0,5	-0,946
2594,074	0,5	-0,538
2601,964	-14,5	-3,497
2609,871	-1,5	-1,201
2617,761	1,5	-0,347
2625,668	-13	-3,499
2633,582	-2,5	-1,697
2641,49	3,5	-0,067
2649,379	-12	-3,264
2657,269	-3	-2,155
2665,164	4	-0,018
2673,06	-6	-2,642
2680,955	-6,5	-2,904
2688,851	4,5	-0,002
2696,74	-3	-2,182
2704,636	-9	-3,278
2712,544	4	0
2720,439	-1	-1,608
2728,353	-11	-3,461
2736,242	4,5	-0,242
2744,162	-0,5	-1,263
2752,081	-11,5	-3,487
2759,989	1	-0,672
2767,884	0	-0,913
2775,792	-11,5	-3,494
2783,724	-0,5	-1,077
2791,643	1	-0,452
2799,521	-11,5	-3,499
2807,41	-1,5	-1,525
2815,324	2,5	-0,117
2823,237	-11	-3,261
2831,127	-3	-2,345
2839,034	4,5	-0,009
2846,948	-5	-2,589
2854,861	-5	-2,983
2862,763	4,5	-0,001
2870,67	-2	-2,048
2878,566	-7,5	-3,316
2886,468	4,5	0
2894,369	-0,5	-1,637
2902,271	-10,5	-3,462
2910,184	3	-0,493
2918,068	0	-1,227
2925,975	-10,5	-3,491
2933,889	0,5	-0,897
2941,779	1	-0,74
2949,674	-10,5	-3,497
2957,606	-1	-1,382
2965,519	1,5	-0,258
2973,439	-10	-3,5
2981,334	-2	-2,092
2989,254	4	-0,015
2997,149	-5	-2,692
3005,051	-4,5	-2,97
3012,97	4,5	-0,001
3020,854	0	-1,783
3028,755	-8,5	-3,434
3036,651	4	-0,272
3044,553	0	-1,198
3052,448	-9,5	-3,484
3060,356	0,5	-0,779
3068,257	0,5	-0,777
3076,159	-9,5	-3,498
3084,06	-1	-1,57
3092,01	3,5	-0,048
3099,923	-6	-2,904
3107,819	-3	-2,589
3115,703	4	-0,007
3123,604	-3	-2,514
3131,53	-4,5	-3,103
3139,425	4,5	-0,001
3147,309	-0,5	-2,008
3155,21	-7	-3,38
3163,1	4,5	-0,071
3171,007	0	-1,428
3178,903	-8,5	-3,476
3186,798	3	-0,461
3194,694	0,5	-1,028
3202,59	-8,5	-3,496
3210,509	-0,5	-1,197
3218,423	2	-0,152
3223,078	4	0