File: Cycling_tests/_20perc/_1gap/entrada/_4.txt
Time (s)	Load (N)	Displacement (mm)
242,587	-22,5	-2,948
244,116	-16	-2,99
245,64	3,5	-0,001
247,17	-5	-1,25
248,694	-25,5	-3,496
250,247	-6,5	-1,701
251,76	3	-0,037
253,313	-18,5	-2,562
254,843	-19,5	-3,295
256,404	3	-0,449
257,994	-0,5	-0,518
259,538	-25,5	-3,212
261,126	-15,5	-2,841
262,685	3,5	-0,032
264,257	-3	-0,884
266,231	-7,5	-1,523
267,779	-25	-3,492
269,399	-7	-1,902
270,959	3,5	-0,009
272,525	-10	-1,838
274,097	-25	-3,49
275,705	-6	-1,699
277,21	3	-0,041
278,77	-16	-2,32
280,348	-24	-3,442
359,459	-15	-2,422
361,001	-21,5	-3,372
362,555	2	-0,519
364,073	-1,5	-0,783
365,561	-24,5	-3,498
367,079	-6	-1,895
368,609	3,5	-0,016
370,163	-13,5	-2,215
371,693	-23	-3,442
373,229	-0,5	-0,777
374,735	-0,5	-0,536
376,27	-24,5	-3,471
377,758	-8,5	-2,188
379,258	3,5	-0,009
380,782	-13,5	-2,184
382,337	-23,5	-3,452
383,884	-2	-0,909
385,429	1	-0,244
386,95	-24,5	-3,2
388,462	-12	-2,533
389,938	3,5	-0,006
391,462	-11	-2,023
392,973	-22,5	-3,44
394,486	0	-0,706
396,009	-0,5	-0,538
472,913	4	-0,001
474,431	-5	-1,364
475,943	-24	-3,493
477,419	-3	-1,153
478,913	1	-0,208
480,413	-24	-3,283
481,948	-12	-2,602
483,454	3,5	-0,003
484,954	-8	-1,796
486,466	-23	-3,474
487,984	-2	-0,978
489,496	1	-0,217
491,008	-23,5	-3,461
492,496	-9	-2,242
493,984	4	-0,011
495,496	-14	-2,384
496,972	-18,5	-3,308
498,49	3,5	-0,097
499,989	-4	-1,218
501,471	-23,5	-3,492
502,989	-3,5	-1,376
504,477	2,5	-0,104
505,989	-21	-2,946
507,495	-14,5	-2,837
508,983	4	-0,001
548,275	-23,5	-3,498
549,763	-5	-1,716
551,269	3,5	-0,028
552,768	-17	-2,714
554,25	-15	-3,008
555,756	4	-0,001
557,232	-5,5	-1,522
558,708	-23,5	-3,481
560,202	-1,5	-0,9
561,678	0	-0,574
563,166	-23,5	-3,499
564,666	-7	-2,055
566,142	4	-0,018
567,629	-15,5	-2,601
569,117	-16	-3,086
570,593	3,5	-0,001
572,093	-4	-1,34
573,581	-23	-3,492
575,075	-3,5	-1,265
576,557	1,5	-0,152
578,051	-22,5	-3,088
579,545	-12,5	-2,636
581,027	4	-0,002
582,521	-8,5	-1,87
584,008	-22,5	-3,46
585,496	-0,5	-0,801
586,972	0	-0,508
588,46	-23	-3,499
589,948	-7	-1,981
591,424	3,5	-0,022
592,918	-15	-2,486
594,406	-17,5	-3,169
595,876	3,5	0
597,352	-5,5	-1,567
598,834	-23	-3,481
600,31	-1,5	-0,871
601,786	0	-0,583
603,279	-23,5	-3,499
604,773	-7,5	-2,166
606,268	3,5	-0,011
607,749	-13,5	-2,385
609,261	-18	-3,338
610,743	3,5	-0,244
612,219	-3,5	-1,205
613,713	-23,5	-3,495
615,201	-4	-1,4
616,677	2	-0,136
618,189	-21	-3,053
619,695	-13	-2,758
621,176	3,5	-0,002
696,85	-2,5	-0,939
698,344	-23	-3,497
699,82	-4	-1,532
701,29	2	-0,099
702,766	-22,5	-3,251
704,248	-9	-2,405
705,736	4	-0,005
707,218	-10,5	-2,125
709,083	-23	-3,376
710,589	-9	-2,376
712,071	3,5	-0,006
713,554	-13	-2,264
715,047	-18,5	-3,348
716,517	3,5	-0,258
717,993	-3	-1,159
719,469	-23	-3,494
720,951	-3	-1,267
722,421	1	-0,251
723,921	-22,5	-3,463
725,396	-7,5	-2,161
726,866	3,5	-0,015
728,348	-14,5	-2,459
729,824	-16	-3,158
731,306	3,5	0
732,776	-5,5	-1,463
808,456	-22,5	-3,494
809,944	-3	-1,29
811,408	1	-0,252
812,908	-22,5	-3,298
814,365	-7	-2,161
815,835	3,5	-0,011
817,293	-13,5	-2,457
818,787	-16	-3,244
820,251	4	-0,037
821,715	-3	-1,268
823,191	-22,5	-3,49
824,661	-2,5	-1,14
826,137	1,5	-0,211
827,595	-22,5	-3,279
829,065	-7,5	-2,288
830,54	4	-0,006
832,004	-11	-2,205
833,468	-16,5	-3,287
834,932	4	-0,111
836,396	-3,5	-1,337
837,884	-22	-3,491
839,36	-2,5	-1,236
840,836	1,5	-0,179
842,3	-22	-3,336
843,782	-8	-2,341
845,252	4	-0,006
846,704	-12,5	-2,328
848,15	-16	-3,171
849,613	4	0
851,071	-5	-1,525
852,535	-21,5	-3,477
854,005	-0,5	-0,87
855,451	-0,5	-0,663
856,915	-22,5	-3,499
858,391	-5	-1,796
859,861	3,5	-0,027
861,337	-15,5	-2,648
862,801	-13,5	-2,941
864,271	4	-0,001
865,734	-5,5	-1,604
867,204	-21,5	-3,472
868,68	-0,5	-0,851
870,15	0	-0,546
871,608	-22,5	-3,499
873,072	-5	-1,774
874,536	3,5	-0,036
876	-18,5	-2,724
877,482	-12,5	-2,85
878,946	3,5	-0,001
880,398	-7	-1,785
881,879	-21,5	-3,461
883,349	0	-0,686
884,819	-0,5	-0,707
886,283	-22	-3,498
887,741	-4	-1,623
889,217	3,5	-0,052
890,681	-20	-2,988
892,139	-10	-2,551
893,615	4	-0,004
895,073	-10	-2,155
896,543	-18,5	-3,378
898,013	3,5	-0,269
899,477	-3	-1,236
900,952	-22	-3,492
902,416	-2,5	-1,185
903,874	0,5	-0,373
905,338	-22	-3,499
906,808	-6,5	-2,06
908,284	4	-0,018
909,748	-15	-2,647
911,2	-12,5	-2,867
912,652	4	-0,002
914,146	-6	-1,72
915,604	-21	-3,461
917,062	1,5	-0,586
1174,831	0	-0,567
1176,283	-21,5	-3,499
1177,771	-4,5	-1,774
1179,228	3,5	-0,064
1180,686	-21,5	-3,166
1182,138	-8	-2,386
1183,602	4	-0,008
1185,084	-11	-2,217
1186,548	-17	-3,32
1188,012	4	-0,037
1189,464	-5	-1,55
1190,922	-20,5	-3,474
1192,374	1	-0,646
1193,844	-1,5	-0,854
1195,29	-21	-3,496
1196,741	-3	-1,39
1198,205	1,5	-0,152
1199,669	-21	-3,253
1201,139	-7,5	-2,354
1202,609	4	-0,006
1204,073	-12	-2,368
1205,525	-13,5	-3,151
1206,989	4	-0,001
1208,447	-5,5	-1,66
1209,905	-20	-3,454
1211,381	2,5	-0,563
1212,833	-2	-1,073
1214,284	-21	-3,494
1215,749	-2,5	-1,261
1217,242	1,5	-0,164
1218,706	-21	-3,373
1220,176	-7	-2,278
1221,64	4	-0,01
1223,104	-13,5	-2,458
1224,58	-14,5	-3,176
1226,044	4	-0,001
1227,508	-5	-1,629
1228,972	-20,5	-3,476
1230,448	0	-0,771
1231,906	-0,5	-0,778
1233,357	-21	-3,497
1234,821	-3	-1,471
1236,285	2,5	-0,145
1237,737	-21	-3,378
1239,225	-7,5	-2,284
1240,683	4	-0,013
1242,171	-11	-2,351
1243,653	-16	-3,3
1245,117	4	-0,116
1246,581	-4	-1,418
3137,319	0	-0,843
3138,765	1	-0,749
3140,21	-9,5	-3,497
3141,65	-0,5	-1,413
3143,096	2	-0,208
3144,572	-9,5	-3,338
3146,018	-2	-2,136
3147,482	4	-0,02
3148,94	-6	-2,768
3150,392	-3,5	-2,714
3151,838	4	-0,004
3153,29	-3	-2,225
3154,73	-5,5	-3,206
3156,176	4	-0,001
3157,627	-1	-1,668
3159,073	-9	-3,458
3160,519	3	-0,438
3161,971	0	-1,123
3163,417	-9,5	-3,491
3164,863	0	-0,936
3166,315	0,5	-0,643
3167,755	-10	-3,498
3169,201	-1	-1,461
3170,647	1,5	-0,192
3172,093	-9,5	-3,499
3173,131	4	0