File: Cycling_tests/_20perc/_1gap/entrada/_5.txt
Time (s)	Load (N)	Displacement (mm)
0	0	-0,05
11,263	-20	-2,814
23,107	-3	-0,531
34,428	1	-0,394
46,223	-30	-3,285
57,414	-7	-1,124
68,89	-0,5	-0,658
79,929	-12,5	-2,178
90,963	-27,5	-3,457
102,326	-14,5	-1,961
113,365	0	-0,321
124,452	3	0
135,504	-8,5	-1,784
146,627	-27	-3,492
157,846	-11	-1,823
168,742	-1,5	-0,635
179,703	3	-0,028
191,12	-10,5	-2,254
201,998	-17	-2,986
252,678	3,5	-0,002
263,458	3	-0,146
274,348	-4	-1,135
285,465	-18,5	-3,182
296,11	-16,5	-2,928
307,01	-25	-3,481
317,629	-24	-3,448
328,309	-24,5	-3,466
338,928	-22,5	-3,392
349,553	-20	-3,308
360,131	-15	-2,838
370,655	-6,5	-1,852
381,076	0	-0,644
391,503	3,5	-0,002
440,49	3,5	-0,004
450,996	1,5	-0,105
461,399	-3,5	-1,195
471,833	-15	-2,408
482,266	-24	-3,499
492,633	-22,5	-3,445
503,067	-9,5	-2,298
513,509	-2,5	-0,998
523,855	3,5	-0,004
534,223	-1	-0,711
544,512	-18	-2,702
554,778	-22,5	-3,461
565,068	-5,5	-1,737
575,429	3,5	-0,003
623,276	-19,5	-3,346
633,565	-4	-1,393
643,843	3,5	-0,006
654,102	-3,5	-1,228
664,332	-23	-3,5
674,903	-23	-3,495
685,168	-11	-2,591
695,386	3	-0,306
705,627	0,5	-0,284
715,881	-13,5	-2,363
726,116	-23	-3,491
773,225	-22,5	-3,496
783,437	-8,5	-2,385
793,624	3,5	0
803,751	-1,5	-0,868
813,933	-21	-3,015
824,132	-20	-3,428
834,302	-3	-1,375
844,435	3,5	-0,016
854,569	-12,5	-2,298
864,738	-21,5	-3,464
875,273	-15	-3,089
885,431	3,5	-0,208
895,564	-2,5	-1,088
905,692	-22,5	-3,497
915,855	-5	-1,829
926,018	3,5	-0,009
936,17	-8	-1,986
946,315	-22	-3,482
956,473	-4	-1,538
966,588	3	-0,08
976,746	-21	-3,176
986,867	-12	-2,78
996,982	3,5	-0,126
1007,134	0	-0,52
1017,255	-22	-3,365
1027,395	-14,5	-3,058
1037,51	3,5	-0,278
1047,644	0,5	-0,371
1057,759	-20,5	-3,087
1067,85	-11,5	-2,772
1077,966	3,5	0
1088,063	-3,5	-1,395
1098,149	-21,5	-3,493
1108,276	-4	-1,598
1118,439	3,5	-0,014
1128,519	-10,5	-2,322
1138,652	-21	-3,474
1148,756	-2	-1,031
1158,871	2	-0,136
1168,957	-16,5	-2,818
1179,102	-19	-3,428
1189,602	-13	-3,012
1199,717	1,5	-0,56
1209,826	0,5	-0,263
1219,942	-15,5	-2,716
1230,027	-15	-3,26
1240,124	2	-0,58
1250,192	0	-0,599
1260,32	-21	-3,196
1270,423	-12,5	-2,991
1280,502	4	-0,201
1290,6	-0,5	-0,759
1300,691	-21	-3,384
1310,802	-12	-2,935
1320,88	3,5	0
1330,971	-1,5	-1,022
1341,357	-9	-2,145
1351,466	-20,5	-3,474
1361,552	-1	-0,946
1371,661	2,5	-0,135
1381,728	-16,5	-2,874
1391,808	-13	-3,082
1401,899	3,5	-0,253
1412,003	0	-0,638
1422,106	-21	-3,305
1432,198	-11	-2,804
1442,277	4	-0,001
1452,374	-1,5	-1,079
1462,46	-20,5	-3,498
1472,557	-6	-2,163
1482,643	4	-0,003
1492,74	-5,5	-1,808
1502,814	-20	-3,484
1512,935	-2,5	-1,293
1523,038	3	-0,083
1533,136	-15,5	-2,843
1543,221	-13	-3,027
1553,283	3,5	-0,102
1563,35	-1,5	-1,112
1573,447	-20,5	-3,498
1583,557	-4,5	-1,889
1593,702	3,5	-0,008
1603,776	-9	-2,247
1613,903	-18,5	-3,462
1623,983	0	-0,728
1634,044	0	-0,661
1644,141	-20,5	-3,499
1654,251	-8	-2,494
1664,288	4	-0,002
1674,392	-4	-1,528
1684,465	-20	-3,49
1694,539	-2	-1,28
1704,576	1	-0,198
1714,661	-20	-3,333
1724,741	-7,5	-2,43
1734,808	3,5	-0,005
1744,894	-7,5	-2,015
1754,967	-19	-3,455
1765,083	-1,5	-1,099
1775,18	2,5	-0,119
1785,253	-19,5	-3,201
1795,339	-9	-2,703
1805,406	4	-0,001
1815,462	-5,5	-1,823
1825,517	-19	-3,457
1835,572	-1	-0,869
1845,64	0,5	-0,325
1855,719	-19,5	-3,216
1865,769	-7,5	-2,54
1875,8	4	-0,003
1885,844	-8	-2,134
1895,869	-14,5	-3,253
1905,936	4	-0,006
1915,968	-3	-1,566
1926,023	-19,5	-3,476
1936,091	-1	-0,972
1946,146	0,5	-0,5
1956,166	-20	-3,499
1966,209	-3,5	-1,696
1976,27	3,5	-0,043
1986,296	-17,5	-3
1996,309	-6,5	-2,308
2006,347	4	-0,012
2016,39	-9,5	-2,343
2026,434	-15	-3,325
2036,483	4	-0,036
2046,532	-3	-1,461
2056,546	-18,5	-3,458
2066,577	2	-0,447
2076,603	-1,5	-1,168
2086,634	-19,5	-3,488
2096,642	0	-0,7
2106,679	0	-0,613
2116,68	-19,5	-3,497
2126,736	-2,5	-1,32
2136,773	2	-0,17
2146,841	-19	-3,202
2156,884	-6	-2,39
2166,898	4	-0,012
2176,947	-12,5	-2,548
2186,979	-10	-2,871
2197,01	4	-0,002
2207,047	-7,5	-2,068
2217,085	-13,5	-3,275
2227,128	2,5	-0,462
2237,19	0	-0,655
2247,245	-19,5	-3,499
2257,288	-3,5	-1,774
2267,32	3,5	-0,055
2277,363	-16,5	-3,024
2287,401	-8,5	-2,738
2297,414	4	-0,002
2307,446	-5	-1,857
2317,459	-17	-3,432
2327,526	0	-0,7
2337,558	-0,5	-0,776
2347,571	-19	-3,498
2357,573	-2	-1,372
2367,586	0,5	-0,343
2377,642	-19,5	-3,5
2387,703	-5	-2,086
2397,704	3,5	-0,032
2407,784	-13,5	-2,676
2417,815	-10,5	-2,913
2427,871	4	-0,002
2437,89	-6,5	-2,09
2447,91	-13,5	-3,296
2457,947	4	-0,001
2467,96	-4	-1,736
2477,974	-17	-3,44
2488,023	0	-0,758
2498,043	0,5	-0,404
2508,062	-18	-3,499
2518,081	-3,5	-1,894
2528,101	3,5	-0,03
2538,102	-15,5	-2,983
2548,17	-9,5	-2,878
2558,177	4	-0,001
2568,227	-3	-1,669
2578,264	-17,5	-3,476
2588,278	0	-0,753
2598,333	0,5	-0,475
2608,346	-17,5	-3,499
2618,36	-4	-1,988
2628,391	3,5	-0,03
2638,441	-11,5	-2,731
2648,478	-9	-2,989
2658,48	4	-0,001
2668,505	-3,5	-1,81
2678,518	-15	-3,432
2688,55	3	-0,493
2698,581	0	-0,886
2708,613	-16,5	-3,497
2718,686	-2,5	-1,69
2728,705	3	-0,075
2738,725	-15,5	-3,366
2748,726	-3,5	-2,114
2758,74	4	-0,014
2768,753	-7,5	-2,467
2778,797	-11,5	-3,289
2788,828	4	-0,159
2798,86	-1	-1,259
2808,903	-15,5	-3,496
2818,922	-1,5	-1,324
2828,954	2,5	-0,122
2838,961	-14	-3,027
2849,023	-9	-3,071
2859,06	4	0
2869,109	-0,5	-1,168
2879,117	-15	-3,495
2889,148	-2	-1,524
2899,162	3	-0,049
2909,157	-10,5	-2,908
2919,177	-5,5	-2,722
2929,19	4	-0,002
2939,239	-2	-1,832
2949,271	-12	-3,464
2959,278	1,5	-0,6
2969,304	0,5	-0,628
2979,311	-12,5	-3,498
2989,319	-2	-1,758
2999,326	3,5	-0,04
3009,369	-9	-2,925
3019,431	-4,5	-2,723
3029,438	4	-0,004
3039,44	-5,5	-2,618
3049,465	-5	-2,846
3059,473	4	-0,002
3069,492	-1,5	-1,782
3079,517	-10,5	-3,44
3089,537	3,5	-0,295
3099,556	-0,5	-1,61
3109,57	-10,5	-3,46
3119,613	1	-0,556
3129,669	0	-0,879
3139,694	-11	-3,494
3149,701	-0,5	-1,119
3159,721	0,5	-0,63
3169,782	-10,5	-3,499
3179,838	-1,5	-1,774
3189,845	1,5	-0,188
3199,864	-10,5	-3,5
3205,18	3,5	-0,001