File: Cycling_tests/_newS/_2G20/entrada/_1.txt
Time (s)	Load (N)	Displacement (mm)
0	-0,28	-0,022
10,695	1,92	-0,264
21,356	2,66	-0,002
32,017	3,06	-0,001
42,691	3,38	-0,006
53,352	3,52	-0,017
64,044	3,84	-0,004
74,723	3,94	-0,014
85,384	3,7	-0,039
96,052	3,22	-0,055
106,725	3,48	-0,062
117,398	-0,62	-0,424
128,072	0,54	-0,352
138,751	0,36	-0,382
149,425	-4,8	-0,948
160,098	-11,64	-1,695
170,777	-13,92	-2,013
181,451	-13,52	-1,939
192,136	-14,38	-2,063
202,804	-16,78	-2,185
213,489	-15,26	-2,233
224,174	-20,24	-2,66
234,86	-22,52	-2,863
245,545	-26,16	-3,291
256,242	-26,2	-3,499
266,928	-26,2	-3,494
277,613	-25,8	-3,475
288,311	-22,4	-3,379
299,026	-17,48	-2,927
309,717	-9,82	-2,16
320,409	-3,94	-1,412
331,118	1,4	-0,884
341,822	4,18	-0,473
352,507	5,82	0
363,228	5,84	-0,001
373,95	5,94	-0,002
384,665	5,98	-0,003
395,386	5,9	-0,015
406,102	5,5	-0,038
416,811	1,92	-0,222
427,509	-5,2	-1,128
438,224	-9,1	-1,633
448,927	-12,92	-2,025
459,643	-14,66	-2,217
470,364	-18,22	-2,544
481,08	-18,28	-2,575
491,795	-17,38	-2,54
502,534	-18,94	-2,696
513,25	-19,62	-2,729
523,977	-19,04	-2,567
534,711	-15,44	-2,385
545,438	-16,18	-2,34
556,171	-14,3	-2,223
566,887	-13,56	-2,18
577,602	-20,6	-2,78
588,323	-22,68	-3,046
599,045	-24,98	-3,488
609,784	-24,92	-3,498
620,506	-24,86	-3,497
631,245	-24,84	-3,494
641,984	-24,44	-3,49
652,742	-24,62	-3,482
663,469	-23,2	-3,436
674,197	-22,82	-3,437
684,918	-23,36	-3,436
695,645	-23,4	-3,438
706,367	-23,38	-3,44
717,106	-23,88	-3,464
727,81	-23,94	-3,471
738,531	-24,14	-3,48
749,276	-23,96	-3,475
760,004	-24,02	-3,472
770,743	-24,36	-3,487
781,476	-24,26	-3,478
792,186	-23,24	-3,456
802,913	-22,66	-3,425
813,629	-21,4	-3,389
824,362	-23	-3,44
835,089	-23	-3,426
845,823	-21,34	-3,402
856,556	-19,8	-3,339
867,284	-18,66	-3,258
878,023	-18,52	-3,249
888,732	-14,74	-2,939
899,466	-14,5	-2,806
910,205	-15	-2,88
920,92	-16,62	-3,109
931,66	-19,6	-3,356
942,399	-22,6	-3,439
953,145	-23,64	-3,472
963,884	-23,98	-3,49
974,617	-24	-3,496
985,363	-24,1	-3,497
996,114	-23,86	-3,498
1006,872	-23,74	-3,5
1017,593	-23,78	-3,498
1028,326	-23,7	-3,499
1039,078	-23,62	-3,499
1049,799	-23,6	-3,499
1060,539	-23,62	-3,5
1071,266	-23,48	-3,222
1081,975	-22,52	-3,137
1092,715	-19,2	-2,776
1103,442	-14,82	-2,429
1114,157	-15,3	-2,481
1124,885	-12,48	-2,184
1135,606	-10,5	-2,023
1146,328	-6,54	-1,668
1157,049	-6,7	-1,659
1167,794	-5,96	-1,534
1178,552	-5,34	-1,451
1189,303	-6,06	-1,494
1200,049	-5,62	-1,475
1210,806	-4,74	-1,451
1221,551	-6,64	-1,678
1232,297	-5,74	-1,537
1243,048	-7,26	-1,73
1253,781	-6,94	-1,819
1264,515	-9,78	-2,057
1275,266	-11,42	-2,276
1285,994	-14,1	-2,464
1296,721	-12,28	-2,441
1307,454	-9,7	-2,075
1318,218	-4,34	-1,53
1328,945	-1,76	-1,088
1339,679	0,14	-0,87
1350,388	1,36	-0,612
1361,133	4,62	-0,135
1371,855	6,98	-0,022
1382,582	7,24	-0,003
1393,327	7,18	0
1404,073	4,24	-0,632
1414,818	-1,5	-1,367
1425,558	-4,36	-1,908
1436,297	-5,94	-2,098
1447,036	-8	-2,373
1457,782	-10,22	-2,736
1468,509	-14,2	-3,165
1479,243	-15,6	-3,323
1489,97	-18,56	-3,454
1500,703	-18,88	-3,483
1511,431	-19,08	-3,489
1522,17	-19,06	-3,493
1532,886	-19,02	-3,493
1543,607	-18,94	-3,494
1554,34	-18,82	-3,496
1565,08	-18,72	-3,497
1575,819	-18,66	-3,498
1586,534	-18,6	-3,498
1597,292	-18,48	-3,499
1608,007	-18,3	-3,499
1618,741	-18,24	-3,5
1629,474	-18,16	-3,496
1640,213	-18,14	-3,5
1650,953	-18,08	-3,48
1661,68	-17,64	-3,227
1672,408	-14,62	-2,839
1683,147	-9,78	-2,374
1693,886	-6,72	-1,895
1704,638	-1,94	-1,344
1715,371	1,22	-0,72
1726,116	5,34	-0,123
1736,85	6,88	-0,03
1747,589	7,12	-0,017
1758,341	7,24	-0,003
1769,068	7,2	-0,001
1779,819	6,56	-0,331
1790,547	4,74	-0,611
1801,298	0,48	-1,149
1812,05	-3,18	-1,728
1822,777	-4,4	-2
1833,51	-6,7	-2,437
1844,256	-9,48	-2,844
1855,013	-13,94	-3,346
1865,734	-16,26	-3,448
1876,468	-17,14	-3,489
1887,201	-17,16	-3,498
1897,947	-17,1	-3,499
1908,686	-17	-3,5
1919,425	-16,5	-3,15
1930,147	-13,36	-2,852
1940,874	-9,3	-2,41
1951,602	-6,62	-2,061
1962,317	-5,3	-1,954
1973,056	-3,48	-1,658
1983,814	-0,48	-1,038
1994,547	2,08	-0,581
2005,287	2,8	-0,428
2016,02	3,94	-0,262
2026,759	5,64	-0,104
2037,481	6,2	-0,067
2048,208	5,72	-0,068
2058,947	6,6	-0,037
2069,669	6,32	-0,048
2080,39	6,84	-0,025
2091,118	6,86	-0,018
2101,857	6,92	-0,014
2112,608	7	-0,007
2123,348	6,98	-0,001
2134,081	6,96	-0,001
2144,821	6,92	0
2155,56	6,9	-0,179
2166,275	6,02	-0,445
2177,039	4,4	-0,739
2187,772	0,46	-1,149
2198,535	-1,4	-1,513
2209,269	-3,4	-1,907
2220,02	-6	-2,421
2230,736	-6,68	-2,636
2241,463	-8,52	-2,903
2252,196	-9,66	-3,143
2262,912	-9,68	-3,144
2273,627	-10,06	-3,191
2284,361	-13,02	-3,406
2295,1	-13,86	-3,451
2305,803	-14,12	-3,469
2316,525	-14,24	-3,487
2327,234	-14,36	-3,488
2337,949	-14,2	-3,489
2348,677	-14,24	-3,492
2359,41	-14,26	-3,497
2370,144	-14,18	-3,498
2380,865	-14,1	-3,498
2391,58	-14,02	-3,499
2402,314	-14	-3,498
2413,035	-13,94	-3,495
2423,751	-13,86	-3,494
2434,484	-13,82	-3,494
2445,205	-13,76	-3,493
2455,921	-13,7	-3,49
2466,654	-13,66	-3,491
2477,382	-13,64	-3,492
2488,109	-13,54	-3,488
2498,836	-13,38	-3,479
2509,576	-13,42	-3,484
2520,291	-13,3	-3,485
2531,006	-13,5	-3,494
2541,746	-13,42	-3,488
2552,473	-13,42	-3,492
2563,189	-12,86	-3,465
2573,91	-10,74	-3,373
2584,643	-9,88	-3,323
2595,365	-8,14	-3,021
2606,098	-6,76	-2,782
2616,808	-7,74	-3,029
2627,529	-9,36	-3,237
2638,268	-10,36	-3,347
2648,984	-10,56	-3,364
2659,705	-11,92	-3,438
2670,451	-12,5	-3,473
2681,184	-12,28	-3,455
2691,917	-10,64	-3,376
2702,639	-8,32	-3,191
2713,36	-6,72	-2,872
2724,105	-5,24	-2,661
2734,851	-5,72	-2,604
2745,578	-6,24	-2,772
2756,324	-5,62	-2,641
2767,069	-7,36	-2,92
2777,796	-9,26	-3,299
2788,524	-10,96	-3,376
2799,269	-11,34	-3,418
2810,003	-11,56	-3,414
2820,73	-10,66	-3,382
2831,469	-9,58	-3,326
2842,197	-7,86	-3,098
2852,924	-7,44	-2,984
2863,651	-7,16	-2,987
2874,385	-7,5	-2,986
2885,118	-7,46	-2,976
2895,84	-6,46	-2,821
2906,561	-5,2	-2,602
2917,3	-4,66	-2,436
2928,052	-3,86	-2,341
2938,767	-3,18	-2,16
2949,495	-4,78	-2,449
2960,216	-5,5	-2,65
2970,961	-7,18	-2,966
2981,701	-7,48	-3,054
2992,434	-8,28	-3,204
3003,161	-8,44	-3,229
3013,925	-9,06	-3,37
3024,646	-9,62	-3,382
3035,362	-8,68	-3,277
3046,065	-7,56	-3,147
3056,816	-7,52	-3,068
3067,538	-6,44	-2,902
3078,253	-6,02	-2,866
3088,975	-6,08	-2,907
3099,708	-5,44	-2,69
3110,447	-4,68	-2,566
3121,181	-4,26	-2,476
3131,914	-4,44	-2,465
3142,642	-4,84	-2,532
3153,375	-4,5	-2,5
3164,132	-5,56	-2,762
3174,878	-5,82	-2,808
3185,617	-6,74	-3,014
3196,344	-6,84	-3,026
3207,084	-8,28	-3,234
3214,985	6,02	0