File: Cycling_tests/_newS/_2G20/entrada/_4.txt
Time (s)	Load (N)	Displacement (mm)
0	-0,22	-0,027
10,755	2,12	-0,262
21,459	2,76	-0,266
32,162	2,64	-0,288
42,883	2,9	-0,345
53,629	1,26	-0,598
64,344	3	-0,445
75,065	2,64	-0,501
85,781	1,6	-0,588
96,49	2,04	-0,655
107,212	0,36	-0,803
117,927	-1,46	-1,058
128,63	-2,62	-1,148
139,352	-4,44	-1,322
150,079	-7,4	-1,666
160,807	-8,68	-1,881
171,528	-7,48	-1,805
182,249	-6,34	-1,569
192,977	-6,66	-1,63
203,698	-5,26	-1,527
214,425	-0,12	-1,009
225,171	2,78	-0,628
235,91	0,02	-0,898
246,656	2,84	-0,644
257,401	4,4	-0,588
268,128	5,76	-0,295
278,85	6,1	0
289,589	6,2	-0,001
300,328	6,28	-0,002
311,074	6,34	-0,004
321,807	6,38	-0,008
332,553	6,36	-0,012
343,292	5,68	-0,044
354,026	3,24	-0,195
364,765	-0,3	-0,515
375,54	-1,14	-0,704
386,298	-0,56	-0,642
397,067	-2,8	-0,886
407,83	-5,24	-1,149
418,582	-7,08	-1,37
429,339	-11,94	-1,828
440,103	-15,12	-2,194
450,872	-14,3	-2,088
461,635	-17,28	-2,408
472,411	-19,22	-2,657
483,186	-21,1	-2,755
493,979	-21,44	-2,844
504,731	-21,32	-2,827
515,494	-17,38	-2,431
526,282	-14,38	-2,098
537,027	-9,72	-1,712
547,778	-8,42	-1,516
558,524	-8,54	-1,525
569,275	-4,44	-1,116
580,039	-3,4	-0,993
590,814	-2,62	-0,952
601,565	-1,5	-0,844
612,347	1,02	-0,535
623,104	4,04	-0,214
633,903	5,12	-0,115
644,691	7	-0,029
655,454	7,28	-0,014
666,23	7,38	-0,011
677,005	7,46	-0,004
687,78	7,46	-0,002
698,562	7,44	0
709,325	6,5	-0,479
720,094	4,84	-0,645
730,882	3,52	-0,798
741,663	1,74	-0,961
752,445	1,04	-1,026
763,214	0,86	-1,025
773,995	1,82	-0,904
784,765	0,54	-1,073
795,552	-1,62	-1,253
806,334	-4,18	-1,627
817,091	-2,54	-1,417
827,866	-0,84	-1,309
838,636	0,16	-1,149
849,399	0,3	-1,135
860,192	-0,6	-1,19
870,962	2,88	-0,924
881,743	5,26	-0,643
892,531	2,42	-0,85
903,318	4,26	-0,673
914,105	5,26	-0,593
924,875	7,3	-0,347
935,644	7,78	-0,153
946,432	7,84	-0,001
957,225	7,84	-0,001
968,006	7,92	-0,001
978,812	7,96	-0,002
989,599	7,98	-0,006
1000,375	8	-0,004
1011,144	7,96	-0,01
1021,913	7,62	-0,03
1032,695	6,9	-0,052
1043,47	6,36	-0,094
1054,239	7,5	-0,04
1065,009	7,58	-0,03
1075,802	7,48	-0,036
1086,572	7,3	-0,048
1097,335	7,48	-0,043
1108,104	7,62	-0,037
1118,88	7,3	-0,057
1129,667	7,7	-0,032
1140,454	8,04	-0,013
1151,23	8,16	-0,01
1162,005	8,06	-0,013
1172,769	8,1	-0,015
1183,514	7,76	-0,038
1194,289	7,38	-0,056
1205,047	6,88	-0,09
1215,846	6,94	-0,084
1226,628	7,24	-0,07
1237,409	4,12	-0,3
1248,184	2,66	-0,518
1258,978	3,66	-0,314
1269,753	3,64	-0,338
1280,534	3,82	-0,31
1291,316	4,88	-0,199
1302,097	5,16	-0,141
1312,891	6,6	-0,103
1323,678	6,56	-0,064
1334,447	6,68	-0,098
1345,229	6,06	-0,124
1356,004	4,6	-0,231
1366,78	4,18	-0,332
1377,525	3,44	-0,4
1388,3	2,8	-0,4
1399,07	3,04	-0,413
1409,851	4,1	-0,266
1420,627	3,88	-0,317
1431,408	3,34	-0,369
1442,177	2,62	-0,514
1452,977	4,4	-0,276
1463,752	3,26	-0,312
1474,527	3,64	-0,337
1485,321	5,18	-0,161
1496,114	6,28	-0,135
1506,908	6,92	-0,099
1517,695	5,98	-0,136
1528,47	6,24	-0,125
1539,252	7,08	-0,093
1550,021	5,76	-0,146
1560,784	6,08	-0,155
1571,566	5,5	-0,176
1582,341	6,24	-0,116
1593,105	7,74	-0,052
1603,874	7,42	-0,054
1614,643	6,8	-0,092
1625,419	7,48	-0,078
1636,2	7,4	-0,08
1646,976	6,2	-0,118
1657,769	6,08	-0,128
1668,562	7,04	-0,081
1679,338	7,1	-0,1
1690,101	5,46	-0,18
1700,9	3,9	-0,344
1711,688	2,16	-0,52
1722,475	1,66	-0,728
1733,263	0,48	-0,868
1744,086	-0,96	-1,043
1754,855	-3,24	-1,379
1765,649	-1,68	-1,154
1776,448	0,02	-0,882
1787,224	1,3	-0,692
1798,017	3,32	-0,382
1808,81	5,06	-0,248
1819,586	6,98	-0,072
1830,367	8,02	-0,034
1841,118	8,22	-0,027
1851,894	8,22	-0,027
1862,663	8,46	-0,01
1873,433	8,48	-0,006
1884,19	8,44	-0,015
1894,953	8,38	-0,016
1905,711	7,5	-0,072
1916,468	6,68	-0,106
1927,25	7,1	-0,092
1938,019	6,86	-0,082
1948,812	7,28	-0,052
1959,582	8,18	-0,035
1970,363	8,04	-0,043
1981,12	7,52	-0,058
1991,884	6,68	-0,108
2002,659	3,58	-0,434
2013,417	4,88	-0,288
2024,174	4,86	-0,321
2034,937	6,04	-0,158
2045,713	7,78	-0,055
2056,494	8,36	-0,024
2067,252	8,34	-0,028
2078,039	8,18	-0,023
2088,814	8,54	-0,008
2099,602	8,56	-0,002
2110,377	8,54	-0,001
2121,152	8,54	-0,001
2131,91	8,54	-0,001
2142,679	8,54	-0,002
2153,437	8,54	-0,002
2164,206	8,46	-0,001
2174,981	8,46	-0,002
2185,769	8,44	-0,073
2196,532	8,46	0
2207,296	8,46	0
2218,083	6	-0,564
2228,858	3,46	-0,88
2239,622	2,18	-0,994
2250,391	2,14	-1,026
2261,154	1,74	-1,138
2271,924	-0,08	-1,324
2282,687	-1,68	-1,628
2293,469	-2,4	-1,709
2304,232	-3,18	-1,877
2314,983	-4,56	-2,136
2325,759	-8,04	-2,495
2336,51	-9,52	-2,793
2347,28	-14,12	-3,279
2358,025	-16,1	-3,424
2368,794	-17,28	-3,458
2379,552	-16,58	-3,457
2390,333	-17,9	-3,491
2401,09	-17,84	-3,498
2411,866	-17,8	-3,499
2422,635	-17,74	-3,498
2433,417	-17,68	-3,499
2444,18	-17,64	-3,499
2454,949	-17,6	-3,498
2465,743	-17,52	-3,499
2476,512	-17,44	-3,5
2487,27	-17,38	-3,5
2498,045	-17,28	-3,486
2508,826	-15,52	-3,044
2519,596	-13,48	-2,838
2530,365	-13,76	-2,928
2541,17	-8,46	-2,363
2551,94	-7,18	-2,078
2562,721	-2,94	-1,603
2573,503	-0,66	-1,237
2584,296	-0,2	-1,084
2595,053	0,86	-0,922
2605,841	1,54	-0,868
2616,61	1,18	-0,838
2627,416	3,44	-0,525
2638,173	4,9	-0,236
2648,942	7,26	-0,064
2659,724	6,1	-0,132
2670,481	6,48	-0,118
2681,274	3,9	-0,458
2692,056	2	-0,79
2702,819	2,12	-0,694
2713,589	3,62	-0,38
2724,358	5,02	-0,215
2735,133	7,18	-0,076
2745,885	8,26	-0,014
2756,654	8,36	-0,004
2767,436	8,32	-0,001
2778,211	8,28	0
2788,998	7,98	-0,31
2799,786	7,92	-0,262
2810,555	8	-0,341
2821,312	6,32	-0,554
2832,118	4,08	-0,862
2842,899	3,3	-0,963
2853,675	0,9	-1,27
2864,45	0,92	-1,262
2875,207	-0,24	-1,425
2885,983	-2,1	-1,78
2896,776	-2,54	-1,941
2907,551	-4,84	-2,263
2918,333	-6,02	-2,476
2929,126	-6,96	-2,656
2939,926	-10,44	-3,164
2950,719	-11,32	-3,289
2961,494	-13,28	-3,353
2972,264	-11,1	-3,208
2983,027	-10,78	-3,278
2993,797	-12,04	-3,311
3004,572	-12,8	-3,347
3015,359	-14,34	-3,436
3026,129	-14,78	-3,459
3036,904	-15,1	-3,47
3047,68	-15,04	-3,468
3058,461	-15,16	-3,474
3069,248	-15,34	-3,48
3080,036	-15,52	-3,493
3090,817	-15,3	-3,484
3101,58	-15,38	-3,49
3112,386	-15,42	-3,498
3123,161	-15,4	-3,498
3133,937	-15,34	-3,498
3144,706	-15,3	-3,498
3155,469	-15,28	-3,498
3166,245	-15,24	-3,498
3177,014	-15,22	-3,498
3187,789	-15,18	-3,498
3198,571	-15,16	-3,498
3209,352	-15,1	-3,495
3220,134	-15,08	-3,496
3227,789	8,12	0