File: ensaios_Ciclicos/_30perc/_1gap/entrada/_1.txt
Time (s)	Load (N)	Displacement (mm)
0	1	-0,035
7,924	-4	-0,803
16,108	-19,5	-2,581
24,165	-26	-3,48
31,995	0	-0,83
40,034	3,5	-0,043
91,409	-4	-1,422
98,837	-10,5	-2,011
106,415	-8	-2,175
113,848	-2,5	-1,185
121,534	-20,5	-3,423
128,901	3	-0,132
136,377	-20,5	-3,398
144,254	3	-0,438
151,586	-22,5	-3,5
158,899	4,5	-0,003
166,147	-21	-3,459
173,527	3,5	-0,124
181,434	-17	-2,819
188,754	4,5	0
195,995	-21,5	-3,488
203,213	2,5	-0,241
210,395	-6,5	-2,076
217,408	-21,5	-3,412
224,518	4,5	-0,033
231,609	-6,5	-2,187
238,935	-5	-1,779
246,099	3	-0,493
253,232	-21	-3,488
260,408	1	-0,549
267,505	-2,5	-1,317
274,627	-20,5	-3,499
281,556	0	-0,941
289,14	-15	-3,178
335,193	4,5	-0,002
342,165	-9	-2,575
349,226	-18	-2,979
356,162	2,5	-0,28
362,972	4,5	-0,037
408,714	-19,5	-3,27
415,583	0	-0,821
422,356	4,5	-0,003
429,196	-3	-1,779
435,976	-17	-3,412
442,785	-15,5	-2,89
487,381	-18,5	-3,166
494,634	4,5	-0,003
501,402	-1,5	-1,294
508,109	-11	-3,11
514,871	-18,5	-3,494
596,166	2,5	-0,247
602,844	4,5	-0,002
609,582	-2,5	-1,508
616,295	-13,5	-3,256
622,961	-18,5	-3,498
630,131	4	-0,113
711,27	-1	-1,188
717,936	-7,5	-2,619
724,637	-18	-3,49
731,393	-10	-2,55
738,112	0,5	-0,845
744,778	5	-0,015
751,408	4,5	-0,054
758,091	-3	-1,794
764,793	-13	-3,28
771,465	-18	-3,498
778,22	-4,5	-1,97
858,939	-5	-2,043
865,629	1,5	-0,598
872,361	5	-0,007
879,038	4,5	-0,256
885,8	-3,5	-2,062
892,501	-16,5	-3,455
899,227	-17,5	-3,248
905,929	-1,5	-1,539
912,588	3	-0,232
919,26	4,5	-0,002
926,387	-12,5	-3,247
1043,831	-15,5	-3,441
1050,442	-17	-3,495
1057,09	-16,5	-3,456
1063,726	-8	-2,47
1070,823	5	-0,009
1077,459	4,5	-0,06
1084,112	-1	-1,234
1090,724	-5	-2,33
1097,408	-15,5	-3,441
1104,055	-17	-3,498
1110,691	-14,5	-2,991
1301,27	-6	-2,68
1307,876	-13,5	-3,415
1314,511	-16	-3,499
1321,171	-8,5	-2,514
1327,801	-1	-1,555
1334,46	2	-0,504
1341,108	5	-0,009
1347,762	4	-0,395
1354,385	-1	-1,362
1361,021	-5	-2,442
1367,662	-14,5	-3,418
1374,304	-16	-3,496
1380,934	-15,5	-3,5
1387,587	-6	-2,336
1394,241	0	-1,119
1400,877	4	-0,128
1407,47	4,5	-0,015
1414,107	5	-0,001
1420,771	1	-0,796
1427,383	-1,5	-1,505
1434,031	-5	-2,521
1440,618	-11,5	-3,279
1447,248	-16	-3,492
1453,848	-15,5	-3,196
1460,489	-2	-1,692
1467,077	1,5	-0,683
1473,7	4,5	-0,023
1480,33	4,5	0
1486,953	-0,5	-1,194
1493,536	-3	-2,095
1500,153	-10,5	-3,215
1506,752	-15,5	-3,489
1513,352	-15	-3,306
1519,916	-5	-2,247
1526,515	0	-1,139
1533,133	4	-0,083
1539,756	5	-0,003
1546,356	2,5	-0,557
1552,92	-1	-1,472
1559,525	-5,5	-2,609
1566,119	-14,5	-3,44
1572,677	-15	-3,497
1579,246	-15	-3,2
1585,828	-2,5	-1,92
1592,433	1,5	-0,746
1599,021	4,5	-0,034
1605,625	4,5	-0,001
1612,232	0	-1,065
1618,802	-3,5	-2,106
1625,402	-11,5	-3,248
1631,989	-15	-3,489
1638,577	-15	-3,5
1645,177	-6,5	-2,403
1651,782	0	-1,342
1658,43	4	-0,088
1665,047	5	-0,002
1671,659	0,5	-0,755
1678,271	-2,5	-1,888
1684,864	-10	-3,114
1691,44	-15,5	-3,477
1698,027	-15,5	-3,499
1704,633	-8,5	-2,634
1711,293	0	-1,12
1717,898	4,5	-0,074
1724,462	4,5	-0,003
1731,038	3	-0,542
1737,571	-0,5	-1,351
1744,141	-4,5	-2,494
1750,692	-12	-3,392
1757,25	-15	-3,496
1763,838	-12,5	-2,95
1770,396	-3	-2,016
1776,959	0	-1,093
1783,511	2	-0,25
1790,146	5	-0,006
1796,686	4,5	-0,092
1803,256	-0,5	-1,17
1809,837	-3	-2,197
1816,383	-8,5	-3,086
1822,928	-15	-3,476
1829,474	-15	-3,472
1836,044	-5	-2,238
1842,691	1,5	-0,556
1921,965	-15	-3,495
1928,558	-11	-2,834
1935,164	-0,5	-1,544
1941,734	1,5	-0,608
1948,304	4,5	-0,038
1954,897	4,5	-0,001
1961,484	3	-0,505
1968,054	-0,5	-1,415
1974,624	-4,5	-2,498
1981,181	-12,5	-3,376
1987,763	-15	-3,495
1994,333	-15	-3,461
2000,878	-6	-2,5
2007,436	-1	-1,624
2014,017	1,5	-0,633
2020,635	4,5	-0,017
2027,211	4,5	-0,001
2215,426	-11,5	-2,955
2222,014	-2,5	-1,94
2228,571	0	-1,155
2235,141	3	-0,22
2241,692	5	-0,008
2248,298	4,5	-0,072
2254,88	0	-0,962
2261,449	-1,5	-1,828
2268,013	-5,5	-2,819
2274,588	-14	-3,461
2281,164	-15	-3,498
2360,39	-0,5	-1,558
2366,923	1,5	-0,724
2373,481	3,5	-0,122
2380,026	5	-0,009
2386,59	5	0
2393,13	0,5	-0,852
2399,675	-1	-1,667
2406,245	-4,5	-2,602
2412,785	-11	-3,361
2419,342	-14,5	-3,491
2425,894	-14,5	-3,499
2432,445	-12	-2,858
2438,979	-4	-2,166
2445,549	0	-1,304
2452,124	2	-0,318
2458,682	5	-0,021
2465,228	5	-0,001
2471,761	4,5	-0,331
2478,343	-0,5	-1,286
2484,883	-2,5	-2,166
2491,434	-6,5	-2,889
2498,004	-13,5	-3,466
2504,579	-14,5	-3,499
2511,125	-10	-2,929
2517,671	-3	-2,14
2524,204	0	-1,338
2530,75	2	-0,405
2537,338	5	-0,017
2543,871	5	-0,002
2550,447	2,5	-0,54
2557,028	-0,5	-1,487
2563,574	-3	-2,32
2570,12	-8	-3,134
2649,285	-13,5	-3,498
2655,837	-11,5	-3,151
2662,388	-5	-2,494
2668,934	0	-1,557
2675,474	0,5	-1,134
2682,031	2,5	-0,37
2688,595	5	-0,013
2695,158	5	0
2701,71	0	-1,107
2708,25	-1,5	-1,999
2714,795	-7	-3,106
2721,329	-12,5	-3,467
2727,893	-13	-3,5
2734,438	-7	-2,554
2740,972	-1	-1,788
2747,536	1,5	-0,734
2754,075	4	-0,098
2760,609	5	-0,006
2767,184	5	-0,084
2773,73	0	-0,91
2780,3	-1	-1,839
2786,852	-4,5	-2,738
2829,731	-12	-3,499
2836,264	-10,5	-3,083
2842,816	-2,5	-2,125
2849,362	1	-1,13
2855,907	2	-0,43
2862,441	4,5	-0,02
2869,022	4,5	-0,001
2875,568	3	-0,552
2882,108	0	-1,177
2888,689	-1,5	-2,077
2895,283	-5,5	-2,974
2901,817	-9	-3,417
2908,374	-11	-3,494
2914,932	-11	-3,499
2921,525	-5,5	-2,68
2928,089	-0,5	-1,919
2934,647	0,5	-1,25
2941,222	2,5	-0,37
2947,762	4,5	-0,053
2954,308	5	-0,006
2960,889	5	-0,022
2967,459	0,5	-0,925
2973,999	-0,5	-1,63
2980,544	-2	-2,302
2987,078	-5	-3,02
2993,624	-8,5	-3,434
3000,169	-9	-3,49
3006,721	-9	-3,498
3013,296	-8,5	-3,226
3019,842	-2,5	-2,513
3026,405	0	-1,65
3032,939	1,5	-0,868
3039,473	3	-0,279
3118,968	4,5	-0,107
3125,526	0	-0,896
3132,072	0	-1,776
3138,611	-1,5	-2,501
3145,157	-5,5	-3,322
3151,696	-7,5	-3,483
3158,23	-7,5	-3,496
3164,776	-8	-3,499
3171,369	-3	-2,748
3177,915	0	-2,017
3184,478	1,5	-1,213
3191,066	2,5	-0,364
3191,474	5	-0,001