File: ensaios_Ciclicos/_30perc/_1gap/entrada/_3.txt
Time (s)	Load (N)	Displacement (mm)
0	0,5	-0,04
4,241	2	-0,001
8,543	3	-0,002
12,929	3	0
17,254	3	-0,064
21,64	3,5	-0,266
25,881	3,5	-0,064
30,603	-7,5	-1,844
34,78	-3,5	-1,193
38,88	3,5	-0,014
42,969	3,5	-0,012
88,998	-11,5	-2,599
93,474	-17	-3,291
97,529	-5,5	-1,845
101,639	0	-0,778
105,881	3	-0,44
110,015	4	-0,001
114,173	4	-0,017
118,246	0,5	-0,535
122,218	-11	-2,281
126,19	-21	-3,499
130,204	-19,5	-3,438
134,128	-4,5	-1,756
137,98	4,5	-0,002
142,011	4	-0,097
146,031	-2,5	-1,279
149,894	-20,5	-3,476
153,842	-19,5	-3,444
158,162	-20	-3,457
162,17	-8	-2,382
166,153	-0,5	-0,84
169,946	4	-0,069
296,286	-5	-1,866
299,982	-18,5	-3,482
303,666	-1,5	-1,133
307,361	2,5	-0,11
311,123	-12	-2,606
314,849	-15	-3,375
318,533	3,5	-0,442
322,288	2	-0,382
326,02	-18,5	-3,263
329,866	-15	-3,35
411,161	-1	-1,128
414,792	1,5	-0,434
418,457	-17,5	-3,497
422,045	-3	-1,826
425,711	4,5	-0,023
429,286	-16	-3,038
432,892	-6,5	-2,486
436,468	4,5	-0,012
440,116	-9,5	-2,519
443,668	-8	-2,707
447,249	5	-0,004
488,749	-16,5	-3,453
492,361	4	-0,364
495,924	-1	-1,414
499,482	-16,5	-3,453
503,022	4,5	-0,132
506,574	-2,5	-1,689
510,15	-16	-3,434
514,223	-7,5	-2,67
517,799	4,5	-0,005
521,333	-11	-2,683
524,909	-7,5	-2,611
528,467	5	-0,01
532,036	-10,5	-2,656
535,6	-7	-2,63
539,158	5	-0,008
542,716	-10,5	-2,654
546,274	-7,5	-2,654
549,868	4,5	-0,004
553,407	-10	-2,625
556,989	-9	-2,777
560,967	-1,5	-1,354
639,04	-14,5	-2,968
642,562	-4,5	-2,151
646,072	4	-0,104
649,624	-16,5	-3,5
653,17	-2	-1,58
656,68	2	-0,523
660,237	-16,5	-3,498
663,771	-0,5	-1,032
667,329	1,5	-0,713
670,899	-16,5	-3,497
786,08	-3,5	-2,096
789,662	4,5	-0,031
793,219	-16	-3,305
796,777	-3	-1,958
800,347	4	-0,061
803,875	-15,5	-3,5
807,391	-2	-1,54
810,918	2	-0,393
814,41	-16	-3,496
817,944	0	-0,901
821,46	0	-1,145
936,119	-10	-3,193
939,641	4,5	-0,002
943,187	-6	-2,358
946,691	-6	-2,64
950,219	5	-0,013
953,752	-14,5	-3,109
957,268	-2,5	-1,839
960,754	2,5	-0,275
964,294	-15	-3,498
967,792	0,5	-0,895
971,751	5	-0,003
975,267	-9,5	-2,696
978,795	-4,5	-2,421
982,311	4,5	-0,046
985,797	-15	-3,499
989,301	-1	-1,324
992,823	1	-0,708
996,35	-15	-3,493
999,902	0	-0,776
1003,382	-0,5	-1,47
1006,927	-15	-3,453
1010,449	4,5	-0,148
1013,965	-2,5	-1,886
1017,481	-10,5	-3,24
1020,985	4,5	-0,004
1024,524	-9	-2,634
1028,022	-4	-2,34
1031,538	4,5	-0,038
1035,084	-15	-3,29
1038,605	-2,5	-1,818
1042,127	3	-0,205
1267,247	5	0
1270,768	-2,5	-1,895
1274,26	-9	-3,1
1277,758	5	-0,005
1281,256	-12	-2,923
1284,765	-3	-2,04
1288,257	3,5	-0,136
1291,749	-15	-3,498
1295,253	0	-1,193
1298,799	1,5	-0,574
1302,314	-15	-3,494
1305,836	2	-0,704
1309,346	0	-1,228
1312,868	-13,5	-3,45
1316,39	4,5	-0,014
1319,881	-3	-2,031
1323,373	-7	-2,933
1326,859	4,5	-0,012
1330,369	-15	-3,194
1333,855	-2	-1,773
1337,346	1,5	-0,451
1340,844	-15	-3,494
1344,324	4	-0,392
1347,858	-1	-1,588
1351,368	-12	-3,395
1354,901	5	-0,001
1358,423	-4	-2,108
1361,897	-5,5	-2,66
1365,389	4,5	-0,025
1368,869	-14,5	-3,5
1372,391	-1	-1,566
1375,864	1,5	-0,648
1452,714	-3,5	-2,102
1456,212	-7	-2,859
1459,674	4,5	-0,019
1463,195	-14,5	-3,383
1466,663	-0,5	-1,424
1470,155	1,5	-0,727
1473,641	-14,5	-3,485
1477,121	4,5	-0,216
1480,594	-3	-2,079
1484,086	-6	-2,874
1487,578	5	-0,013
1491,046	-14,5	-3,315
1494,537	-1,5	-1,72
1498,011	2	-0,542
1501,533	-14,5	-3,496
1505,037	1,5	-0,698
1508,535	0	-1,357
1512,045	-12,5	-3,434
1515,536	5	-0,001
1519,022	-6	-2,406
1522,532	-5	-2,621
1526,024	5	-0,017
1529,515	-14	-3,198
1532,989	-1,5	-1,682
1536,457	1,5	-0,534
1539,949	-14,5	-3,495
1543,441	2,5	-0,629
1546,897	-1	-1,648
1550,394	-10	-3,295
1553,862	4,5	-0,003
1557,366	-7,5	-2,658
1560,84	-3	-2,37
1564,386	5	-0,02
1567,889	-14	-3,232
1571,369	-1,5	-1,69
1574,867	2,5	-0,43
1578,365	-14,5	-3,495
1581,832	4	-0,446
1585,318	-1	-1,652
1588,786	-8,5	-3,063
1592,266	5	-0,009
1595,746	-12	-3,061
1599,232	-2	-1,825
1602,693	2	-0,464
1606,155	-14,5	-3,491
1609,635	4,5	-0,236
1613,133	-2,5	-1,955
1616,636	-8	-3,085
1620,11	4,5	-0,009
1623,59	-14	-3,299
1627,046	-1	-1,47
1630,532	1,5	-0,784
1634,005	-14	-3,476
1637,485	4,5	-0,031
1640,935	-5,5	-2,37
1644,433	-5,5	-2,704
1647,889	4,5	-0,029
1651,38	-14	-3,434
1654,848	-0,5	-1,438
1658,34	1,5	-0,754
1661,82	-14	-3,481
1665,306	4,5	-0,07
1668,768	-4,5	-2,252
1672,223	-4	-2,49
1675,703	4,5	-0,06
1679,171	-14	-3,499
1682,621	0,5	-0,788
1686,088	-0,5	-1,502
1689,55	-9	-3,224
1693,006	4,5	-0,01
1696,474	-14	-3,284
1699,93	-0,5	-1,504
1703,38	1	-0,952
1706,841	-13,5	-3,455
1710,285	4,5	-0,002
1713,759	-10,5	-2,886
1717,227	-2	-1,978
1720,676	1,5	-0,509
1724,132	-14	-3,492
1727,606	4,5	-0,096
1731,068	-4,5	-2,218
1734,53	-4	-2,576
1737,98	3,5	-0,149
1741,484	-14	-3,498
1926,861	4,5	-0,136
1930,323	-3,5	-2,192
1933,779	-4,5	-2,592
1937,24	4,5	-0,048
1940,768	-14	-3,472
1944,218	-0,5	-1,346
1947,715	1	-0,795
1951,172	-13,5	-3,469
1954,669	4,5	0
1958,137	-4,5	-2,388
1961,593	-3	-2,348
1965,067	4	-0,113
1968,516	-14	-3,497
1971,966	2,5	-0,613
1975,428	-1	-1,739
1978,896	-8	-3,087
1982,364	4,5	-0,013
1985,855	-13,5	-3,247
1989,341	-1	-1,643
1992,797	1,5	-0,729
1996,259	-13,5	-3,478
2181,39	3	-0,302
2184,858	-13,5	-3,494
2188,35	3	-0,502
2191,8	-1	-1,757
2195,255	-6,5	-3,054
2198,753	5	-0,007
2202,209	-13	-3,15
2205,677	-1	-1,728
2209,157	2	-0,493
2212,624	-13,5	-3,491
2288,622	5	0
2292,072	-4,5	-2,34
2295,528	-3,5	-2,463
2298,983	4,5	-0,064
2302,493	-13,5	-3,499
2305,985	0	-1,153
2309,453	0,5	-1,134
2312,927	-11	-3,436
2316,394	4,5	-0,002
2319,838	-10,5	-2,973
2323,312	-1	-1,784
2326,762	1	-0,869
2330,212	-12	-3,45
2333,703	5	-0,001
2337,153	-6	-2,568
2340,651	-2,5	-2,292
2344,101	3,5	-0,147
2347,551	-13,5	-3,497
2351,013	3	-0,54
2354,469	-1	-1,737
2357,925	-7	-3,068
3195,464	4,5	-0,002
3198,92	-3	-2,663
3202,364	-1	-2,103
3205,814	3	-0,183
3209,264	-8	-3,497
3212,575	4,5	-0,001