File: ensaios_Ciclicos/_30perc/_1gap/entrada/_4.txt
Time (s)	Load (N)	Displacement (mm)
0	1,5	-0,034
12,172	-5,5	-1,11
24,765	-10	-1,805
37,629	-5	-1,298
49,832	-23,5	-3,497
62,371	-21	-3,43
74,599	0	-0,837
86,316	-18	-2,879
140,517	4,5	0
152,024	-20	-3,481
164,155	-3	-1,487
175,639	-15	-2,773
187,218	3	-0,562
198,605	-19,5	-3,496
209,861	1	-0,727
221,014	2,5	-0,6
232,407	-19,5	-3,498
243,513	0	-1,042
254,682	3	-0,486
265,867	-18	-3,442
276,961	-6	-2,024
288,084	5	-0,007
298,998	-1	-1,157
310,529	-12	-2,579
321,652	4,5	-0,041
332,632	3,5	-0,556
382,939	4	-0,1
393,558	4,5	-0,056
404,19	5	-0,009
414,659	4,5	-0,042
425,129	3	-0,189
435,634	1,5	-0,654
446,193	1,5	-0,623
456,669	0	-1,099
467,27	0	-1,019
478,232	5	-0,01
488,635	3	-0,218
499,044	1	-0,766
509,43	-1,5	-1,569
520,289	3,5	-0,188
530,68	0	-1,058
541,132	-1,5	-1,507
551,505	-9	-2,419
561,837	-16,5	-3,499
572,162	-16,5	-3,474
582,511	-9	-2,87
592,843	-3	-1,694
603,174	4	-0,487
613,476	5	-0,009
623,795	2	-0,523
634,187	-1,5	-1,589
644,473	-16	-3,36
654,843	-16	-3,484
665,223	-9	-2,867
675,59	-2,5	-1,744
685,963	5,5	0
696,271	4,5	-0,05
706,572	-1	-1,488
716,94	-11,5	-2,86
727,205	-16,5	-3,488
737,579	-10,5	-3,132
747,934	-2,5	-1,778
758,277	5	-0,001
768,567	3,5	-0,145
778,976	-0,5	-1,403
789,26	-11	-2,738
799,567	-15,5	-3,498
809,892	-14,5	-3,436
820,128	-3	-2,025
830,387	3,5	-0,48
841,151	-1	-1,342
851,392	5	-0,001
861,669	3,5	-0,148
871,917	-0,5	-1,468
882,116	-15	-3,189
892,4	-15	-3,492
902,671	-9,5	-3,059
913,392	-15	-3,468
923,676	-6	-2,612
933,911	-0,5	-1,157
944,207	5	-0,001
954,484	4	-0,072
964,701	-0,5	-1,523
974,991	-11,5	-2,85
985,305	-15	-3,498
995,702	-15	-3,48
1005,913	-4,5	-2,397
1016,155	2	-0,734
1026,342	5,5	-0,02
1036,565	1	-0,944
1046,873	-5	-2,228
1057,132	-15	-3,499
1067,41	-13,5	-3,423
1077,687	-2	-1,84
1087,917	5	-0,015
1098,218	4,5	-0,059
1108,459	-0,5	-1,479
1118,677	-15	-3,479
1128,906	-13,5	-3,424
1139,088	-1	-1,468
1149,347	5	-0,001
1159,588	3,5	-0,215
1169,836	-2	-1,839
1180,071	-15	-3,499
1190,277	-9	-3,073
1200,536	-0,5	-1,298
1210,79	5,5	-0,004
1220,995	1	-0,936
1231,2	-13	-2,944
1241,412	-15	-3,481
1251,653	-3,5	-2,384
1261,937	0	-1,048
1272,166	5,5	-0,004
1282,329	1	-0,84
1292,577	-7	-2,446
1302,776	-14,5	-3,494
1313,018	-8	-2,996
1323,235	-0,5	-1,299
1333,483	5	-0,002
1343,706	2	-0,434
1353,917	-5	-2,274
1364,099	-15	-3,494
1374,328	-6	-2,802
1384,546	0	-1,188
1394,757	5	-0,003
1404,981	1,5	-0,517
1415,15	-7	-2,448
1425,349	-14,5	-3,494
1435,513	-4,5	-2,423
1445,67	3,5	-0,478
1455,827	4,5	-0,041
1466,027	0	-1,399
1476,22	-14	-3,328
1486,384	-10,5	-3,357
1496,583	-1	-1,469
1506,771	5,5	-0,002
1516,988	2	-0,558
1527,151	-6	-2,513
1537,291	-14	-3,486
1547,496	-3	-2,215
1557,642	5	-0,032
1567,775	3	-0,26
1577,89	-7	-2,574
1588,021	-13,5	-3,456
1598,175	-1,5	-1,732
1608,363	5	-0,001
1618,496	1,5	-0,592
1628,588	-13,5	-3,166
1638,721	-12	-3,384
1648,878	-0,5	-1,348
1658,982	5	-0,011
1669,115	0	-1,38
1679,273	-14	-3,499
1689,382	-5,5	-2,714
1699,498	4,5	-0,315
1709,625	2,5	-0,362
1719,759	-10,5	-2,898
1729,856	-12	-3,404
1739,965	0	-1,017
1750,099	5	-0,023
1760,196	-2,5	-1,943
1770,366	-14	-3,498
1780,481	-5,5	-2,826
1790,59	3	-0,583
1800,688	3,5	-0,149
1810,851	-3,5	-2,147
1820,955	-13,5	-3,47
1831,058	-0,5	-1,439
1841,137	5	-0,015
1851,199	-3	-1,959
1861,32	-13,5	-3,496
1871,46	-3,5	-2,53
1881,575	5	-0,207
1891,691	2	-0,404
1901,782	-7,5	-2,714
1911,868	-12	-3,422
1921,941	-0,5	-1,286
1932,08	5	-0,012
1942,22	0	-1,472
1952,323	-13,5	-3,499
1962,409	-3,5	-2,482
1972,542	3,5	-0,502
1982,634	3	-0,198
1992,731	-6	-2,48
2002,804	-13,5	-3,473
2012,908	-1	-1,642
2023,041	5,5	-0,002
2033,126	0,5	-1,012
2043,218	-13	-3,197
2053,327	-10	-3,355
2063,455	0	-1,152
2073,606	5	-0,012
2083,716	-0,5	-1,594
2093,843	-13,5	-3,499
2103,982	-8,5	-3,208
2114,122	-0,5	-1,216
2124,255	5	-0,015
2134,317	-0,5	-1,627
2144,396	-13,5	-3,499
2154,482	-5,5	-2,835
2164,567	4,5	-0,339
2174,67	3	-0,293
2184,78	-5,5	-2,482
2194,913	-13	-3,469
2204,987	-0,5	-1,372
2215,096	5	-0,012
2225,175	-1,5	-1,74
2235,291	-13	-3,498
2245,413	-4	-2,617
2255,492	5	-0,018
2265,559	1,5	-0,614
2275,651	-11	-2,925
2285,736	-10	-3,356
2295,792	0	-1,001
2305,883	5	-0,018
2315,962	-1	-1,759
2326,036	-13	-3,496
2336,139	-2,5	-2,274
2346,243	5	-0,18
2356,376	3,5	-0,167
2366,443	-6	-2,524
2376,589	-13	-3,49
2386,675	-2	-2,138
2396,748	5	-0,001
2406,815	1	-0,889
2416,901	-13	-3,3
2427,004	-6	-3,039
2437,107	0,5	-0,782
2447,205	4,5	-0,046
2457,32	-2	-1,985
2467,406	-13,5	-3,494
2477,485	-2	-2,035
2487,553	5	-0,002
2497,644	1,5	-0,893
2507,765	-8	-2,836
2517,833	-10,5	-3,406
2527,9	0	-1,097
2537,974	4,5	-0,033
2548,029	-1,5	-1,941
2558,096	-13	-3,496
2568,158	-3	-2,387
2578,267	4,5	-0,286
2588,335	2	-0,545
2598,414	-7,5	-2,751
2608,476	-9	-3,279
2618,549	2,5	-0,634
2628,676	4,5	-0,083
2638,756	-4,5	-2,504
2648,853	-12	-3,468
2658,987	-0,5	-1,692
2669,036	5	-0,013
2679,11	-0,5	-1,765
2689,213	-12,5	-3,497
2699,299	-2	-2,257
2709,36	5	-0,001
2719,427	1	-1,011
2729,507	-12	-3,498
2739,562	-5	-2,933
2749,636	4	-0,506
2759,715	3	-0,245
2769,788	-7,5	-2,802
2779,874	-10,5	-3,421
2789,941	0	-1,019
2800,027	4,5	-0,036
2810,142	-1	-1,904
2820,222	-12	-3,496
2830,295	-2	-2,231
2840,404	5	-0,002
2850,568	3,5	-0,142
2860,641	-2,5	-2,234
2870,739	-11	-3,489
2880,842	-1,5	-1,981
2890,921	5	-0,004
2900,989	0,5	-1,313
2911,05	-9,5	-3,498
2921,136	-2	-2,372
2931,215	5	-0,001
2941,295	1,5	-1,123
2951,356	-9	-3,499
2961,502	-4	-2,925
2971,557	4,5	-0,386
2981,63	3	-0,4
2991,74	-3	-2,58
3001,819	-7,5	-3,435
3011,893	0	-1,269
3022,014	5	-0,008
3032,069	0,5	-1,616
3042,149	-7,5	-3,498
3052,234	-1,5	-2,451
3062,302	5	-0,001
3072,363	1,5	-1,162
3082,431	-7,5	-3,499
3092,498	-1	-2,272
3102,589	5	-0,001
3112,663	1,5	-0,96
3122,796	-7,5	-3,427
3132,858	-2,5	-2,802
3142,949	5	-0,226
3153,034	2	-0,609
3163,132	-7	-3,18
3172,581	4,5	-0,001