File: ensaios_Ciclicos/_30perc/_1gap/entrada/_5.txt
Time (s)	Load (N)	Displacement (mm)
88,493	-6	-1,946
90,707	-9	-2,326
92,771	-7	-2,072
94,901	-7,5	-2,18
97,055	-10	-2,465
99,065	-6	-2,01
101,237	-10,5	-2,518
103,348	-9,5	-2,482
105,533	-14	-2,908
107,65	-15	-3,046
109,75	-15	-3,186
111,946	-19	-3,383
113,968	-14,5	-3,052
115,948	-9,5	-2,392
118,018	-8,5	-2,357
120,255	-13,5	-2,943
122,415	-16	-3,205
124,575	-18,5	-3,367
126,765	-21	-3,476
128,763	-19	-3,423
411,575	-2	-1,49
413,441	4	-0,324
415,276	4,5	-0,011
417,16	2	-0,302
419,092	-0,5	-1,194
421,018	-6	-2,08
422,92	-16,5	-3,07
424,828	-18	-3,497
426,736	-16,5	-3,441
428,67	-9,5	-2,921
430,593	-4,5	-2,046
432,448	0,5	-0,806
434,302	4,5	-0,002
436,227	4	-0,035
438,123	1	-0,562
440,013	-3	-1,659
441,963	-9,5	-2,393
443,835	-17,5	-3,438
445,743	-17,5	-3,493
447,591	-11,5	-3,134
524,938	-0,5	-1,016
526,828	4,5	-0,001
528,706	4,5	-0,037
530,566	0,5	-0,922
532,456	-5	-1,95
534,808	0,5	-0,844
536,686	-4	-1,939
538,539	-17	-3,187
540,369	-17	-3,486
542,253	-10	-3,01
544,131	-2,5	-1,762
546,022	0,5	-0,706
547,881	4	-0,003
549,747	3,5	-0,124
551,589	-1	-1,371
553,449	-10	-2,55
555,278	-17,5	-3,498
557,156	-15,5	-3,437
559,022	-7	-2,494
560,894	-1,5	-1,343
600,462	4,5	-0,019
602,286	0	-0,966
604,146	-7	-2,299
605,976	-17	-3,499
607,836	-16	-3,456
609,683	-7	-2,548
611,525	-1	-1,333
613,391	4,5	-0,109
615,245	4,5	-0,017
617,129	1,5	-0,496
618,977	-3	-1,852
620,813	-16,5	-3,237
622,691	-17	-3,493
624,532	-10,5	-3,074
626,422	-4	-2,036
628,282	0	-0,846
630,172	4,5	-0,001
632,032	4	-0,046
633,91	0,5	-0,825
636,256	4,5	-0,032
638,11	0,5	-0,842
639,988	-4	-1,94
641,859	-15	-3,129
643,749	-17	-3,496
645,591	-12	-3,225
647,463	-4	-2,081
649,299	0,5	-0,734
651,141	4,5	-0,003
653,013	3,5	-0,114
654,873	-0,5	-1,223
656,727	-9,5	-2,558
658,58	-17	-3,498
660,441	-15	-3,419
662,3	-5,5	-2,367
664,166	-0,5	-1,107
666,002	4	-0,001
667,833	3,5	-0,1
669,692	-0,5	-1,208
671,534	-9,5	-2,637
673,406	-17	-3,499
749,799	-3,5	-1,876
751,635	-16,5	-3,332
753,471	-16	-3,483
755,319	-6,5	-2,696
757,173	-1,5	-1,391
759,033	4,5	-0,264
760,893	4,5	-0,018
762,723	0,5	-0,825
764,559	-6,5	-2,15
766,412	-16,5	-3,499
768,266	-15,5	-3,466
770,114	-5,5	-2,49
771,968	-0,5	-1,158
773,822	4,5	-0,001
775,67	4	-0,051
777,512	0	-1,134
779,354	-8,5	-2,44
781,267	-16	-3,498
783,115	-16	-3,476
785,017	-7	-2,738
786,871	-1,5	-1,456
788,707	4	-0,016
790,579	4	-0,023
792,457	1	-0,744
794,299	-5,5	-2,13
796,141	-16	-3,5
798,013	-15,5	-3,482
799,878	-6,5	-2,688
801,768	-1,5	-1,616
803,61	4	-0,304
805,512	4	-0,004
807,354	2,5	-0,264
809,196	-2	-1,608
811,068	-11	-2,764
812,934	-16	-3,498
814,77	-13	-3,37
816,666	-5	-2,351
818,507	0	-0,938
820,349	4,5	-0,002
822,197	3,5	-0,094
898,387	4,5	-0,004
900,247	3	-0,183
902,125	-0,5	-1,348
903,979	-9	-2,625
905,851	-15,5	-3,499
907,716	-15	-3,45
909,582	-5,5	-2,557
911,437	-0,5	-1,184
913,302	4,5	0
915,162	4	-0,038
917,004	0	-0,994
918,84	-7,5	-2,421
920,693	-15,5	-3,499
922,523	-15	-3,449
924,371	-5	-2,428
926,225	-0,5	-1,248
928,049	4,5	-0,001
929,909	4	-0,041
931,751	0	-1,015
933,593	-6,5	-2,316
935,417	-15,5	-3,499
937,265	-15	-3,46
939,1	-5	-2,472
940,943	0	-1,065
942,784	4,5	-0,001
944,626	3,5	-0,078
946,474	0	-1,097
948,334	-8	-2,37
950,158	-15,5	-3,499
952,018	-15	-3,438
953,908	-5	-2,496
955,749	0	-1,073
957,603	4,5	-0,001
959,415	3,5	-0,106
961,275	0	-1,236
963,129	-8,5	-2,503
964,959	-15,5	-3,498
966,819	-13,5	-3,389
968,649	-3	-2,047
970,491	2,5	-0,704
972,327	4,5	-0,005
974,204	3	-0,184
976,034	-1	-1,532
977,888	-11,5	-2,814
979,718	-15	-3,496
981,542	-11	-3,232
983,39	-2,5	-1,916
985,22	2,5	-0,54
987,056	4,5	-0,006
988,898	2	-0,423
990,734	-2	-1,744
992,575	-14	-3,072
994,417	-15,5	-3,492
996,271	-9,5	-3,198
998,125	-2,5	-1,836
1000,015	0,5	-0,727
1001,869	4,5	-0,003
1003,711	3	-0,189
1005,547	-1,5	-1,547
1007,365	-14	-3,052
1193,324	3,5	-0,127
1195,16	0	-1,339
1197,026	-7,5	-2,553
1198,868	-15	-3,499
1200,692	-13,5	-3,402
1202,515	-3	-2,187
1204,363	0	-0,98
1206,205	4,5	-0,002
1208,059	3,5	-0,108
1209,901	0	-1,23
1211,731	-8	-2,565
1213,555	-15	-3,498
1215,391	-12	-3,357
1217,251	-3,5	-2,213
1219,074	0	-0,918
1220,898	4,5	-0,003
1222,723	3	-0,212
1224,576	-0,5	-1,414
1226,418	-9	-2,727
1228,266	-15	-3,498
1230,12	-13,5	-3,405
1231,974	-3,5	-2,322
1233,816	0	-0,952
1235,664	4,5	-0,001
1237,527	4	-0,052
1239,371	0	-0,993
1241,237	-5	-2,178
1243,079	-15	-3,455
1244,903	-15	-3,471
1246,739	-5,5	-2,61
1248,575	-0,5	-1,285
1250,387	4,5	-0,001
1252,229	3,5	-0,065
1254,065	0	-1,199
1255,901	-8,5	-2,508
1257,76	-15	-3,499
1259,602	-14	-3,442
1261,432	-3,5	-2,33
1263,268	0	-1
1265,104	4,5	-0,001
1266,916	3,5	-0,118
1268,752	-0,5	-1,353
1270,594	-10,5	-2,724
1272,436	-15	-3,498
1274,265	-11,5	-3,353
1276,089	-2,5	-2,041
1277,925	1,5	-0,699
1279,761	4,5	-0,004
1281,573	1,5	-0,447
1283,397	-2,5	-1,868
1285,263	-14	-3,061
1287,135	-15	-3,495
1288,994	-11	-3,288
1290,842	-2,5	-2,028
1292,696	1	-0,702
1294,532	4,5	-0,004
1296,369	2,5	-0,251
1298,222	-1	-1,484
1300,052	-12,5	-2,807
1301,918	-15	-3,498
1303,742	-11	-3,317
1305,578	-2,5	-1,997
1307,413	2	-0,607
1309,243	4,5	-0,006
1311,079	2	-0,348
1312,933	-1,5	-1,658
1314,775	-13	-3,018
1316,617	-15	-3,492
1318,447	-7,5	-3,017
1320,283	-1	-1,616
1322,155	4	-0,39
1323,991	4,5	-0,011
1325,82	1,5	-0,675
1327,657	-4,5	-2,107
1329,492	-15	-3,5
1331,346	-15	-3,472
1333,182	-5,5	-2,643
1335,024	-0,5	-1,4
1336,854	4,5	0
1338,678	4	-0,046
3123,96	4,5	0
3125,795	4	-0,027
3127,607	1	-0,84
3129,431	-1,5	-2,114
3131,237	-10	-3,497
3133,043	-9,5	-3,454
3134,849	-2,5	-2,435
3136,661	0	-1,086
3138,479	4,5	-0,001
3140,297	4	-0,069
3142,109	0,5	-1,16
3143,92	-3,5	-2,499
3145,75	-10	-3,499
3147,562	-8,5	-3,405
3149,374	-1,5	-2,202
3151,192	0,5	-0,809
3152,998	4,5	-0,003
3154,81	3	-0,144
3155,146	4,5	-0,001