File: Cycling_tests/_30perc/_2gap/entrada/_2.txt
Time (s)	Load (N)	Displacement (mm)
0	0,5	-0,024
13,149	-11,5	-2,196
26,192	-25,5	-3,464
39,542	-6	-1,346
52,021	-21	-2,691
64,872	-13,5	-2,234
77,243	-24	-3,497
89,903	-23	-3,466
102,282	-6,5	-1,931
114,531	4,5	-0,004
127,245	4,5	-0,032
139,334	-22,5	-3,5
151,027	4,5	-0,007
163,311	-6,5	-1,887
175,211	-6,5	-2,117
187,073	0	-0,844
199,252	-22	-3,496
210,987	4,5	-0,004
222,585	-21,5	-3,485
234,224	4,5	-0,044
245,857	-19,5	-3,418
257,647	5	-0,024
269,496	-21	-3,499
280,913	3,5	-0,131
292,085	0	-0,785
303,166	-12,5	-2,983
314,943	3	-0,221
326,163	-1,5	-1,223
337,532	-20	-3,498
349,328	4,5	-0,096
360,373	-7	-2,327
371,388	-19,5	-3,463
382,626	-5,5	-1,984
394,133	0,5	-0,718
405,154	-8	-2,482
415,924	-12	-3,03
426,705	-18,5	-3,436
438,158	0	-1,123
449,006	4	-0,136
459,865	5	-0,004
470,616	5	0
481,836	-10	-2,872
492,575	-15,5	-3,376
503,309	-18,5	-3,471
513,982	-19	-3,49
524,566	-18,5	-3,477
535,197	-18,5	-3,48
545,816	-18	-3,48
556,514	-18,5	-3,496
567,199	-18,5	-3,499
577,842	-18	-3,499
588,48	-18,5	-3,499
599,093	-18,5	-3,499
609,803	-17	-3,109
620,404	-18	-3,433
631,155	-11,5	-2,72
641,769	-13	-2,774
652,37	-13,5	-2,82
662,948	-16,5	-3,085
673,519	-18	-3,496
684,138	-18	-3,491
694,728	-18	-3,493
705,341	-17,5	-3,349
716,014	-12	-2,776
726,64	-9	-2,47
737,223	-9,5	-2,529
747,795	-8	-2,423
758,366	-6	-2,314
769,009	-3	-1,908
779,593	-2	-1,705
790,17	-1,5	-1,634
800,802	-1,5	-1,58
811,445	0	-1,159
822,01	0,5	-0,956
832,666	3	-0,336
843,321	4,5	-0,06
853,857	4,5	-0,044
864,404	4	-0,107
874,952	2	-0,459
885,529	3	-0,335
896,082	2,5	-0,42
906,576	1,5	-0,744
917,147	2	-0,618
927,628	0	-1,101
938,116	-1	-1,564
949,113	5	-0,021
959,655	5	-0,017
970,148	4,5	-0,057
980,617	4	-0,092
991,129	3,5	-0,152
1001,592	2	-0,537
1012,155	2,5	-0,371
1022,735	3	-0,229
1033,199	1,5	-0,629
1043,734	1	-0,833
1054,263	0,5	-0,995
1064,763	0	-1,155
1075,256	-1	-1,54
1085,821	-1,5	-1,535
1096,285	-4	-2,083
1106,802	-5,5	-2,21
1117,29	-7,5	-2,468
1127,813	-9	-2,587
1138,258	-15	-3,085
1148,728	-16	-3,31
1159,233	-16,5	-3,5
1169,655	-16	-3,492
1180,148	-16	-3,479
1190,701	-15,5	-3,456
1201,243	-15	-3,431
1211,724	-12	-3,293
1222,188	-7,5	-2,802
1232,621	-3,5	-2,026
1243,18	-2,5	-1,746
1253,704	-1,5	-1,403
1264,149	2	-0,644
1274,577	5	-0,048
1285,55	-3	-2,048
1296,086	-3	-1,93
1306,615	-2	-1,66
1317,09	-1	-1,291
1327,596	-0,5	-1,161
1338,071	1,5	-0,615
1348,48	5	-0,002
1358,926	5	-0,032
1369,341	2	-0,544
1379,745	-2	-1,751
1390,214	-5,5	-2,39
1400,666	-15,5	-3,343
1411,117	-15,5	-3,495
1421,574	-13	-3,401
1431,966	-3,5	-2,315
1442,405	-0,5	-1,233
1452,808	5	-0,019
1463,266	5	-0,006
1473,663	3	-0,19
1484,055	0	-1,104
1494,464	-4	-2,16
1504,987	-7	-2,449
1515,415	-15	-3,195
1525,824	-15	-3,498
1536,228	-15	-3,484
1546,631	-10,5	-3,281
1557,028	-3	-2,228
1567,396	0	-0,987
1577,769	5	-0,001
1588,155	4,5	-0,05
1598,528	1,5	-0,674
1608,878	-0,5	-1,387
1619,281	-6	-2,379
1629,708	-14,5	-3,106
1640,076	-15	-3,494
1650,485	-11,5	-3,357
1660,852	-3,5	-2,202
1671,19	0	-0,851
1681,522	5	-0,002
1691,967	5	-0,017
1702,328	2	-0,559
1712,708	-1	-1,723
1723,123	-7	-2,525
1733,496	-15	-3,5
1743,846	-15	-3,488
1754,237	-10	-3,249
1764,623	-3,5	-2,244
1774,99	-0,5	-1,069
1785,364	5	0
1795,719	5	-0,031
1806,062	1,5	-0,744
1816,472	-1,5	-1,805
1826,833	-10,5	-2,854
1837,242	-15	-3,499
1847,574	-14	-3,449
1857,911	-4,5	-2,509
1868,321	-1,5	-1,718
1878,664	2,5	-0,551
1889,139	5	0
1899,477	5	-0,027
1909,832	2	-0,533
1920,176	-1,5	-1,753
1930,513	-10	-2,814
1940,851	-15	-3,499
1951,164	-14	-3,468
1961,513	-7,5	-2,932
1971,845	-2,5	-2,025
1982,224	0	-0,962
1992,544	5	-0,001
2002,893	4,5	-0,041
2013,279	2	-0,394
2023,634	0	-1,294
2033,971	-8	-2,664
2044,321	-15	-3,5
2054,646	-15	-3,489
2065,008	-13,5	-3,436
2075,351	-5	-2,611
2085,712	-1,5	-1,65
2096,038	3,5	-0,535
2106,363	5	-0,006
2116,683	4	-0,117
2127,05	1,5	-0,653
2137,429	0	-1,248
2147,761	-4,5	-2,299
2158,188	-8	-2,664
2168,543	-14,5	-3,5
2178,875	-14,5	-3,491
2189,194	-10	-3,253
2199,514	-4,5	-2,467
2209,851	-1	-1,588
2220,177	0	-0,93
2230,514	5	-0,103
2240,87	5	-0,003
2251,231	5	-0,016
2261,586	3,5	-0,159
2271,93	1,5	-0,845
2282,309	0	-1,398
2292,634	-4,5	-2,326
2303,014	-12,5	-3,114
2313,351	-14,5	-3,492
2323,683	-7,5	-3,094
2334,038	-1,5	-1,718
2344,387	4,5	-0,314
2354,749	5	-0,007
2365,098	1,5	-0,565
2375,436	-3	-2,039
2385,821	-14	-3,273
2396,224	-14	-3,494
2406,55	-4,5	-2,673
2416,899	-0,5	-1,577
2427,225	5	0
2437,562	4,5	-0,074
2447,924	-0,5	-1,583
2458,285	-12,5	-3,075
2468,629	-13,5	-3,488
2478,948	-4,5	-2,676
2489,267	0	-1,132
2499,575	5	-0,001
2509,918	4,5	-0,043
2520,237	1	-0,852
2530,569	-2	-1,942
2540,906	-10,5	-2,912
2551,25	-13,5	-3,498
2561,587	-12,5	-3,455
2571,913	-4	-2,52
2582,232	0	-1,09
2592,641	4	-0,468
2602,979	5	-0,003
2613,322	4,5	-0,062
2623,666	1	-0,835
2634,069	-1	-1,863
2644,4	-13	-3,248
2654,726	-13,5	-3,481
2665,069	-4	-2,572
2675,413	0	-1,201
2685,744	5	0
2696,105	5	-0,025
2706,431	1	-0,904
2716,744	-7,5	-2,79
2727,124	-13	-3,496
2737,515	-12,5	-3,465
2747,834	-3	-2,254
2758,142	5	-0,285
2768,491	4,5	-0,032
2778,865	1,5	-0,843
2789,196	-1,5	-1,918
2799,551	-12	-3,09
2809,901	-12,5	-3,497
2820,226	-10,5	-3,396
2830,558	-4	-2,629
2840,907	-1	-1,561
2851,251	4	-0,536
2861,582	4,5	-0,032
2871,943	1	-1,008
2882,287	-3	-2,239
2892,654	-11	-3,5
2903,027	-11	-3,488
2913,353	-6	-3,143
2923,679	-2	-2,155
2934,004	0	-1,162
2944,317	5	-0,196
2954,631	5	-0,006
2964,962	3,5	-0,115
2975,281	1	-0,929
2985,595	-0,5	-1,924
2995,92	-10	-3,178
3006,234	-10	-3,493
3016,559	-4,5	-3,053
3026,885	-0,5	-1,488
3037,234	5	-0,003
3047,572	4,5	-0,055
3057,927	0,5	-1,225
3068,252	-2,5	-2,468
3078,589	-9	-3,499
3088,921	-9	-3,471
3099,234	-2	-2,442
3109,554	0,5	-0,934
3119,909	5	-0,001
3130,259	4,5	-0,023
3140,59	1,5	-0,66
3150,915	0	-1,939
3161,235	-6,5	-3,111
3171,561	-8,5	-3,495
3176,942	5	-0,001