File: Cycling_tests/_30perc/_2gap/entrada/_3.txt
Time (s)	Load (N)	Displacement (mm)
46,309	-18	-3,02
58,266	-1	-0,776
70,355	-18	-3,193
82,732	4	-0,001
94,444	-22,5	-3,47
106,431	4	-0,016
118,676	-22,5	-3,285
130,178	2,5	-0,198
141,661	-3	-1,156
153,931	0	-0,647
165,42	1	-0,685
339,68	-7	-2,262
350,485	-5	-1,92
361,164	-0,5	-0,911
371,928	4,5	-0,185
382,697	4,5	-0,002
393,407	4,5	-0,031
403,978	-2	-1,199
414,628	-9,5	-2,262
425,655	-3,5	-1,477
436,052	-19,5	-3,498
446,492	-8,5	-2,526
457,033	2,5	-0,609
467,989	-0,5	-1,023
478,59	4,5	-0,001
488,945	0	-0,922
499,373	-18,5	-3,063
510,058	-19,5	-3,498
520,377	-5,5	-2,121
530,763	4,5	-0,001
541,106	-0,5	-1,017
551,54	-19,5	-3,376
561,811	-9,5	-2,639
572,119	4,5	0
582,444	0	-0,803
592,781	-19	-3,401
603,107	-10	-2,718
613,384	4,5	-0,001
623,608	-4,5	-1,73
633,813	-18,5	-3,463
644,12	-0,5	-0,982
654,404	3,5	-0,113
664,717	-14,5	-2,647
674,977	-11	-3,1
685,356	3	-0,564
695,657	2	-0,253
705,959	-17,5	-3,013
716,188	-9,5	-2,757
726,448	4,5	-0,001
736,755	-1	-1,183
747,08	-19	-3,498
757,43	-6	-2,333
767,677	4,5	-0,005
777,979	-5,5	-1,954
788,208	-16,5	-3,42
798,48	0,5	-0,835
808,739	1	-0,53
818,98	-18	-3,499
829,216	-3,5	-1,81
839,409	3,5	-0,082
849,579	-18	-3,483
859,838	-6,5	-2,412
870,086	4,5	-0,004
880,297	-6,5	-2,113
890,562	-17	-3,453
900,84	-1	-1,079
911,147	4,5	-0,031
921,389	-11	-2,608
931,492	-8,5	-2,66
941,715	4,5	-0,002
951,885	-5,5	-2,127
962,066	-16	-3,413
972,236	4,5	-0,015
982,369	-3,5	-1,736
992,55	-16,5	-3,44
1002,648	5	0
1012,805	-2	-1,528
1023,011	-17,5	-3,488
1033,15	1,5	-0,652
1043,26	-0,5	-1,188
1053,399	-17,5	-3,481
1063,55	1,5	-0,628
1074,266	4,5	-0,001
1084,447	-3,5	-1,819
1094,551	-10,5	-3,104
1104,792	4,5	-0,197
1114,901	-3,5	-1,68
1125,065	-16	-3,442
1135,163	4,5	-0,001
1145,338	-3	-1,659
1155,417	-14,5	-3,362
1165,647	4,5	-0,228
1175,768	-3	-1,596
1185,883	-15,5	-3,436
1196,023	4,5	-0,112
1206,228	0	-1,054
1216,422	-17,5	-3,496
1226,597	-0,5	-1,017
1236,718	0	-0,959
1246,84	-17,5	-3,49
1257,016	0	-0,87
1267,149	0	-0,898
1277,331	-17,5	-3,498
1287,596	-3	-1,883
1297,801	4,5	-0,008
1307,952	-9	-2,461
1318,062	-8,5	-2,768
1328,189	4,5	-0,003
1338,347	-7,5	-2,34
1348,48	-10,5	-3,041
1358,602	4,5	-0,001
1368,801	-2,5	-1,6
1378,958	-16,5	-3,477
1389,098	2,5	-0,536
1399,201	-0,5	-1,146
1409,287	-16,5	-3,482
1419,372	4	-0,386
1429,452	-1,5	-1,379
1439,573	-16	-3,472
1449,628	4,5	-0,107
1459,702	-5	-2,042
1469,781	-10	-2,967
1479,861	4,5	-0,007
1489,922	-15,5	-3,106
1499,953	-3	-1,797
1510,021	2	-0,3
1520,076	-17	-3,496
1530,127	3,5	-0,479
1540,199	-1	-1,408
1550,255	-14,5	-3,378
1560,352	4,5	0
1570,366	-5,5	-2,236
1580,403	-6	-2,717
1590,464	4,5	-0,012
1600,526	-16,5	-3,269
1610,605	-3,5	-1,905
1620,667	2	-0,278
1630,692	-16,5	-3,493
1640,753	4,5	-0,234
1650,743	-6,5	-2,277
1660,781	-5	-2,336
1670,872	4	-0,066
1680,885	-16,5	-3,497
1690,917	4,5	-0,428
1701,008	-3	-1,656
1710,997	-8,5	-2,877
1721,065	4,5	-0,01
1731,15	-15,5	-3,131
1741,182	-2	-1,522
1751,159	-0,5	-1,143
1761,167	-11	-3,263
1771,156	4,5	-0,006
1781,229	-12	-2,743
1791,315	-6,5	-2,605
1801,358	4	-0,035
1811,366	-16,5	-3,499
1821,445	-0,5	-0,996
1831,465	-1,5	-1,351
1841,484	-12,5	-3,356
1851,527	4,5	-0,002
1861,511	-15	-3,142
1871,524	-2	-1,57
1881,58	1	-0,571
1891,611	-16	-3,488
1901,619	4,5	-0,001
1911,638	-10	-2,642
1921,633	-3	-1,843
1931,743	3	-0,201
1941,805	-16	-3,496
1951,782	4,5	-0,012
1961,867	-3,5	-1,908
1971,863	-7	-2,634
1981,864	4,5	-0,054
1991,872	-16	-3,499
2001,903	0,5	-0,719
2011,922	-2	-1,656
2021,912	-8	-2,845
2031,895	4	-0,04
2041,879	-16	-3,497
2051,868	4	-0,338
2061,857	-4,5	-2,014
2071,865	-6	-2,635
2081,866	4	-0,049
2091,856	-16	-3,498
2101,911	2,5	-0,659
2111,888	-3,5	-1,766
2121,944	-9,5	-3,134
2132,03	4,5	-0,003
2142,055	-12,5	-2,897
2152,038	-2	-1,606
2162,028	0	-0,765
2172,017	-13,5	-3,432
2182,049	4,5	-0,001
2192,056	-11	-2,772
2202,063	-2,5	-1,937
2212,047	1	-0,598
2222,054	-15	-3,475
2232,062	4,5	-0,001
2242,105	-7,5	-2,38
2252,082	-3,5	-2,066
2262,06	1,5	-0,322
2272,061	-15,5	-3,49
2282,063	4,5	-0,018
2292,064	-7,5	-2,47
2302,048	-3,5	-2,086
2312,043	4	-0,082
2322,069	-15,5	-3,496
2332,052	-1,5	-1,506
2342,054	0,5	-0,595
2352,067	-15	-3,482
2362,044	4,5	-0,001
2372,058	-8,5	-2,602
2382,071	-2,5	-1,844
2392,049	1	-0,582
2402,044	-15	-3,481
2412,04	4,5	-0,004
2422,035	-4	-2,018
2432,066	-9,5	-3,14
2442,05	4,5	-0,013
2452,093	-15,5	-3,328
2462,112	-1,5	-1,346
2472,108	0	-1,079
2482,17	-15	-3,464
2492,165	4,5	-0,002
2502,142	-15	-3,128
2512,126	-1	-1,286
2522,109	0	-1,03
2532,135	-14,5	-3,437
2542,13	4,5	-0,002
2552,179	-11	-2,731
2562,163	-4,5	-2,281
2572,128	1,5	-0,308
2582,124	-15	-3,493
2592,101	4,5	-0,022
2602,078	-7,5	-2,366
2612,05	-3,5	-2,172
2622,063	2,5	-0,233
2632,119	-15	-3,497
2642,102	4,5	-0,348
2652,134	-3	-1,823
2662,123	-7	-2,833
2672,202	4,5	-0,004
2682,264	-10	-2,745
2692,242	-3	-2,058
2702,219	2,5	-0,209
2712,19	-15	-3,496
2722,168	3	-0,556
2732,205	-1	-1,368
2742,207	-12,5	-3,412
2752,202	5	-0,002
2762,173	-10,5	-2,84
2772,193	-3,5	-2,184
2782,194	3,5	-0,112
2792,196	-14,5	-3,498
2802,179	0,5	-0,785
2812,156	-0,5	-1,422
2822,134	-10,5	-3,319
2832,153	4,5	-0,002
2842,161	-12,5	-2,928
2852,156	-2	-1,727
2862,14	1	-0,45
2872,105	-13,5	-3,484
2882,083	4,5	0
2892,072	-4,5	-2,236
2902,067	-7	-2,927
2912,057	4,5	-0,008
2922,04	-12,5	-3,179
2932,042	-2	-1,709
2942,031	1	-0,726
2952,026	-12,5	-3,482
2962,034	4,5	-0,022
2972,03	-3	-2,07
2982,109	-8	-3,185
2992,086	4,5	-0,008
3002,088	-10,5	-3,055
3012,083	-1,5	-1,716
3022,067	1,5	-0,388
3032,062	-12,5	-3,495
3042,057	4,5	-0,32
3052,065	-1,5	-1,758
3062,042	-6	-2,956
3072,098	4,5	-0,004
3082,123	-8,5	-2,886
3092,113	-2	-1,902
3102,078	1,5	-0,584
3112,068	-10	-3,481
3122,117	4,5	-0,131
3132,094	-2,5	-2,22
3142,108	-3,5	-2,592
3152,097	3,5	-0,061
3162,08	-9,5	-3,498
3172,058	3,5	-0,52
3182,065	-1	-1,839
3192,037	-3,5	-2,724
3202,05	4	-0,039
3212,016	-9,5	-3,498
3221,987	1,5	-0,684
3231,964	0	-1,65
3241,954	-4,5	-3,062
3251,931	4,5	-0,015
3256,479	4,5	-0,001