File: Cycling_tests/_30perc/_2gap/entrada/_4.txt
Time (s)	Load (N)	Displacement (mm)
46,914	2	-0,01
49,217	2	-0,001
51,588	-3,5	-1,09
53,941	-11	-2,095
56,268	-18,5	-2,996
58,656	-25,5	-3,489
61,122	-22	-2,884
63,425	-13	-1,971
65,652	-9	-1,489
67,932	-3	-0,766
70,301	2	-0,034
72,581	2,5	-0,003
74,879	2	-0,155
77,201	-4	-1,086
79,889	-25	-3,474
82,139	-25	-3,497
84,352	-25	-3,5
86,656	-18,5	-2,618
88,96	-9,5	-1,706
134,335	2,5	-0,058
136,555	0,5	-0,582
138,769	-2,5	-1,035
141,043	-6,5	-1,685
143,15	-5	-1,577
145,405	-10	-2,23
147,607	-13,5	-2,606
150,361	-23,5	-3,131
152,569	-19	-2,698
154,848	-12,5	-2,052
157,062	-8,5	-1,619
159,258	-5,5	-1,278
161,532	-0,5	-0,369
163,808	2	-0,06
166,056	3	-0,006
168,33	2,5	-0,001
170,61	2	-0,382
172,931	-5	-1,442
175,169	-7	-1,89
339,74	-15	-3,106
341,864	-15	-3,083
343,958	-12,5	-2,786
346,075	-11,5	-2,643
348,205	-11	-2,553
350,311	-10	-2,423
352,404	-7,5	-2,127
354,439	-4,5	-1,58
356,527	-3,5	-1,339
358,627	-3	-1,11
360,774	-3	-1,175
362,832	-0,5	-0,8
364,962	-0,5	-0,78
367,044	1	-0,536
369,12	3	-0,357
371,226	3	-0,16
373,35	3	0
375,45	3	-0,001
377,544	3	-0,002
494,933	3	-0,307
497,015	3,5	-0,004
498,995	3,5	-0,004
500,986	3	-0,038
503,008	0,5	-0,206
505,03	-1	-0,763
507,034	-4,5	-1,386
509,051	-8,5	-1,976
511,042	-16	-2,702
513,112	-19	-3,002
515,122	-21,5	-3,5
517,114	-21,5	-3,494
519,147	-21	-3,472
521,193	-18,5	-3,367
523,197	-12	-2,793
525,207	-7,5	-2,242
527,217	-4,5	-1,726
529,257	-3	-1,184
568,633	-9	-2,06
570,607	-16,5	-2,849
572,593	-21,5	-3,5
574,572	-21,5	-3,496
576,577	-20,5	-3,467
578,574	-15,5	-3,234
580,602	-11	-2,691
582,612	-6,5	-2,082
584,58	-3	-1,316
586,578	0,5	-0,641
588,557	3	-0,001
590,514	3,5	-0,009
592,457	1,5	-0,138
594,437	-1,5	-0,838
596,459	-4	-1,372
598,439	-10	-2,142
600,431	-17	-2,868
602,405	-21,5	-3,5
604,421	-21,5	-3,497
606,461	-21	-3,486
608,429	-17,5	-3,325
610,402	-9,5	-2,575
612,406	-6	-1,957
614,426	-3,5	-1,403
616,426	-0,5	-0,765
618,424	3,5	-0,096
620,488	3,5	-0,001
622,498	3	-0,006
624,477	3	-0,048
626,487	0,5	-0,327
628,461	-2,5	-1,127
630,471	-5,5	-1,623
632,499	-9,5	-2,107
634,521	-15	-2,657
636,531	-21	-3,271
638,553	-21	-3,499
640,526	-21	-3,486
642,506	-18	-3,356
681,984	1,5	-0,126
683,982	-0,5	-0,701
685,968	-3,5	-1,358
687,966	-9	-2,063
690	-13	-2,548
691,992	-20,5	-3,312
693,947	-21	-3,497
695,951	-20	-3,476
697,961	-18	-3,35
699,929	-10,5	-2,685
701,915	-5,5	-1,94
703,949	-4	-1,492
705,923	0	-0,702
707,903	3	0
709,895	3	-0,004
711,874	2,5	-0,04
713,866	0	-0,403
715,84	-2,5	-1,166
717,844	-6,5	-1,795
719,818	-12,5	-2,505
721,804	-21	-3,198
723,766	-21	-3,498
725,776	-20,5	-3,479
727,774	-17	-3,352
729,856	-15,5	-3,232
731,847	-10	-2,605
733,845	-6	-1,984
735,819	-3	-1,246
737,805	0,5	-0,607
739,761	3,5	-0,001
741,765	3,5	-0,007
743,751	2,5	-0,063
745,754	0	-0,416
747,76	-1,5	-1,012
749,738	-6	-1,762
751,718	-12	-2,44
753,722	-19	-3,012
830,14	-20	-3,388
832,126	-20	-3,498
834,064	-19,5	-3,463
836,067	-14,5	-3,238
838,029	-9	-2,532
840,051	-5,5	-2,047
842,013	-2,5	-1,206
843,976	2,5	-0,469
845,955	3,5	-0,001
847,929	3,5	-0,01
849,981	3	-0,023
851,949	1	-0,187
853,934	-1,5	-0,888
855,926	-6	-1,612
857,894	-14	-2,598
859,856	-20,5	-3,5
861,812	-20	-3,494
863,798	-19,5	-3,451
865,76	-12	-2,894
867,74	-6,5	-2,215
869,695	-3	-1,393
871,681	0	-0,781
873,673	3	-0,205
875,635	3	-0,004
877,603	3	-0,034
879,577	0,5	-0,348
881,575	-1	-0,862
883,543	-5,5	-1,649
885,582	-8,5	-2,062
887,563	-15,5	-2,737
889,579	-20	-3,272
891,558	-20,5	-3,499
893,55	-20	-3,488
895,5	-17	-3,382
897,474	-10,5	-2,768
899,454	-5,5	-2,014
901,44	-3	-1,343
903,414	1,5	-0,531
905,369	3	-0,001
907,373	3	-0,008
909,365	2,5	-0,061
911,321	-0,5	-0,627
913,307	-3	-1,362
915,305	-7,5	-2,042
917,285	-15,5	-2,828
919,265	-20	-3,5
921,226	-20	-3,494
923,194	-18,5	-3,429
925,186	-13	-2,999
927,172	-7	-2,276
929,128	-3	-1,426
931,114	0	-0,739
933,07	3,5	-0,001
935,05	3	-0,006
937,006	2	-0,095
938,967	-0,5	-0,805
940,923	-5	-1,712
1053,687	2,5	-0,359
1055,613	3,5	-0,003
1057,557	3	-0,046
1059,549	0	-0,412
1061,516	-2	-1,163
1063,461	-7,5	-2,017
1065,428	-15	-2,778
1067,39	-19,5	-3,5
1069,34	-20	-3,493
1071,32	-18,5	-3,447
1073,312	-12	-2,997
1075,262	-6	-2,118
1077,224	-2,5	-1,29
1079,185	2	-0,445
1081,135	3	-0,002
1083,103	3	-0,015
1085,065	1	-0,198
1087,003	-2,5	-1,132
1088,983	-7	-1,976
1090,921	-15	-2,814
1092,907	-19,5	-3,471
1094,869	-19,5	-3,496
1096,836	-19	-3,465
1098,786	-13	-3,089
1100,736	-6,5	-2,275
1102,686	-3	-1,452
1104,648	1	-0,591
1106,604	3,5	-0,001
1108,578	3,5	-0,007
1110,534	2	-0,103
1112,514	0	-0,656
1114,499	-2,5	-1,263
1116,479	-7	-2,002
1118,423	-15,5	-2,873
1120,397	-19,5	-3,499
1122,407	-19,5	-3,496
1124,339	-17	-3,396
1126,314	-11,5	-2,852
1128,275	-5,5	-2,056
1130,285	-3	-1,436
1132,289	-0,5	-0,817
1134,232	3,5	-0,001
1136,17	3,5	-0,01
1138,126	1,5	-0,15
1140,088	-1,5	-0,951
1142,014	-6,5	-1,933
1144,012	-12	-2,57
1145,974	-19,5	-3,387
1147,966	-19,5	-3,498
1149,934	-18	-3,468
1151,895	-13	-3,06
1153,881	-7,5	-2,357
1155,861	-3,5	-1,614
1157,823	-0,5	-0,812
1159,767	3	-0,001
1161,729	3,5	-0,008
1163,673	1,5	-0,138
1165,665	-0,5	-0,683
1167,65	-3	-1,359
1169,63	-8	-2,144
1171,58	-17,5	-3,018
1173,554	-19,5	-3,499
1175,516	-19,5	-3,491
1177,484	-16,5	-3,373
1179,452	-10,5	-2,802
1181,396	-5	-1,906
1183,364	-2	-1,169
1185,343	1,5	-0,529
1187,311	3,5	-0,001
1189,315	3,5	-0,007
1191,325	3	-0,036
1193,287	0	-0,419
1195,219	-3,5	-1,408
1197,211	-7	-2,043
1199,167	-14	-2,768
3168,23	0,5	-0,814
3170,168	-1	-1,742
3172,1	-5	-2,757
3174,032	-9	-3,499
3175,976	-9	-3,475
3177,902	-4,5	-2,952
3179,833	-1,5	-1,82
3181,777	0	-0,842
3183,709	3,5	-0,001
3185,659	3	-0,012
3187,603	0,5	-0,316
3189,547	0	-1,282
3191,479	-3	-2,362
3193,405	-9	-3,495
3195,349	-9	-3,489
3196,609	3,5	0