File: ensaios_Ciclicos/_newS/_2G60/entrada/_2.txt
Time (s)	Load (N)	Displacement (mm)
0	-0,2	-0,031
10,672	0,92	-0,102
21,285	1,24	0
31,881	1,42	-0,001
42,5	1,58	-0,001
53,114	1,7	-0,003
63,727	1,8	-0,006
74,335	1,88	-0,005
84,936	1,92	-0,014
95,555	1,88	-0,025
106,163	1,7	-0,051
116,795	1,7	-0,065
127,431	1,24	-0,103
138,075	0,92	-0,142
148,688	0,36	-0,276
159,319	0	-0,342
169,951	0,88	-0,189
180,582	1,46	-0,114
191,238	2,22	-0,026
201,899	2,34	-0,019
212,56	2,44	-0,012
223,216	2,46	-0,006
233,865	2,48	-0,009
244,521	2,52	-0,009
255,188	2,52	-0,01
265,831	2,46	-0,017
276,481	2,38	-0,041
287,112	2,38	-0,036
297,756	2,54	-0,018
308,417	2,62	-0,011
319,06	2,66	-0,005
329,716	2,66	-0,003
340,383	2,66	-0,001
351,027	2,66	-0,001
361,706	2,64	-0,12
372,361	1,3	-0,634
383,017	-1,26	-1,223
393,672	-3,64	-1,886
404,327	-6,58	-2,529
414,977	-10,18	-3,218
425,638	-13,24	-3,456
436,3	-13,9	-3,494
446,955	-13,88	-3,499
457,623	-12,78	-2,964
468,272	-9,04	-2,469
478,927	-4,42	-1,753
489,589	-2,02	-1,193
500,268	0,62	-0,404
510,917	2,38	-0,062
521,579	2,84	-0,019
532,252	2,9	-0,004
542,914	2,88	-0,001
553,575	2,88	-0,109
564,26	2,34	-0,457
574,928	2,18	-0,462
585,631	2,88	-0,306
596,31	1,38	-0,713
606,978	0,14	-0,873
617,645	0,02	-0,952
628,295	-0,26	-0,99
638,962	-0,32	-1,112
649,641	-0,86	-1,184
660,315	-0,7	-1,123
670,982	-1,42	-1,356
681,662	-1,96	-1,539
692,311	-2,64	-1,71
702,96	-3,7	-2,082
713,634	-5,54	-2,468
724,289	-6,5	-2,674
734,951	-6,52	-2,692
745,618	-8,26	-2,995
756,261	-9,62	-3,282
766,905	-10,86	-3,359
777,572	-11,9	-3,431
788,246	-12,82	-3,477
798,901	-13,06	-3,494
809,562	-13,06	-3,498
820,242	-12,98	-3,471
830,909	-11,24	-2,894
841,547	-9,26	-2,63
852,202	-6,18	-2,226
862,857	-4,18	-1,856
873,507	-3,82	-1,713
884,156	-3,84	-1,744
894,829	-4,68	-1,859
905,491	-6,12	-1,979
916,158	-3,78	-1,748
926,796	-4,1	-1,798
937,457	-2,48	-1,456
948,112	-1,9	-1,304
958,758	-1,36	-1,164
969,411	0,54	-0,554
980,061	1,66	-0,202
990,728	2,8	-0,041
1001,383	3,04	-0,021
1012,057	3,14	-0,005
1022,706	3,16	-0,004
1033,361	3,14	-0,001
1044,047	3,12	0
1054,696	3,1	-0,177
1065,364	3,12	-0,148
1076,007	3,14	0
1086,662	3,16	-0,001
1097,324	3,16	-0,001
1107,985	3,18	-0,003
1118,653	3,18	-0,003
1129,32	3,16	-0,009
1139,975	3,12	-0,018
1150,619	2,96	-0,046
1161,286	2,52	-0,075
1171,942	1,74	-0,214
1182,597	1,5	-0,262
1193,252	1,18	-0,318
1203,92	1,3	-0,376
1214,575	0,62	-0,602
1225,219	-0,36	-1,029
1235,892	-0,54	-1,025
1246,529	-1,32	-1,363
1257,191	-1,12	-1,329
1267,87	-1,76	-1,514
1278,514	-2,32	-1,798
1289,175	-2,72	-1,913
1299,83	-3,84	-2,255
1310,468	-6,74	-2,739
1321,165	-7,18	-2,77
1331,826	-9,38	-3,158
1342,488	-9,42	-3,5
1353,143	-9,34	-3,499
1363,799	-9,26	-3,498
1374,466	-9,2	-3,498
1385,103	-9,12	-3,493
1395,771	-9,08	-3,49
1406,432	-9,02	-3,488
1417,064	-8,92	-3,481
1427,713	-8,7	-3,468
1438,368	-7,74	-3,394
1449,024	-6,2	-3,257
1459,673	-5,56	-3,076
1470,323	-5,5	-3,118
1480,966	-6,28	-3,283
1491,615	-5,18	-3,083
1502,271	-5,04	-3,028
1512,932	-4,16	-2,882
1523,599	-4,26	-2,748
1534,237	-3,7	-2,557
1544,904	-3,8	-2,641
1555,56	-3,24	-2,522
1566,215	-2,9	-2,356
1576,87	-1,84	-1,993
1587,55	-1,76	-1,914
1598,205	-0,24	-1,185
1608,855	0,34	-0,898
1619,516	2	-0,506
1630,183	3	-0,198
1640,869	2,18	-0,41
1651,518	2,68	-0,369
1662,18	2,98	0
1672,817	3	-0,001
1683,466	3	-0,005
1694,116	2,9	-0,02
1704,777	2,86	-0,026
1715,445	2,8	-0,04
1726,094	2	-0,114
1736,773	2,08	-0,108
1747,411	1,4	-0,28
1758,09	0,98	-0,495
1768,757	0,94	-0,479
1779,419	0,44	-0,749
1790,068	1,04	-0,467
1800,718	0,76	-0,509
1811,397	1,7	-0,148
1822,041	2,06	-0,125
1832,69	2,6	-0,046
1843,333	2,4	-0,062
1854,001	2,54	-0,059
1864,656	2,4	-0,067
1875,299	2,28	-0,078
1885,955	1,88	-0,147
1896,592	1,34	-0,329
1907,242	1,24	-0,334
1917,897	1,56	-0,229
1928,564	1,48	-0,186
1939,226	1,5	-0,183
1949,869	1,86	-0,146
1960,501	1,8	-0,138
1971,162	1,78	-0,143
1981,829	1,98	-0,131
1992,497	1,96	-0,093
2003,146	2,52	-0,046
2013,814	2,56	-0,037
2024,469	2,72	-0,023
2035,112	2,68	-0,026
2045,762	2,66	-0,024
2056,429	2,48	-0,05
2067,084	2,38	-0,066
2077,734	2,06	-0,076
2088,383	1,86	-0,122
2099,039	1,78	-0,11
2109,7	1,9	-0,126
2120,361	1,54	-0,207
2131,005	0,84	-0,542
2141,654	0,26	-0,866
2152,298	-0,26	-1,256
2162,947	-0,76	-1,534
2173,602	-1,36	-1,885
2184,252	-2,2	-2,198
2194,895	-2,68	-2,462
2205,539	-2,76	-2,475
2216,212	-2,88	-2,548
2226,867	-3	-2,421
2237,529	-3,3	-2,51
2248,178	-2,46	-2,329
2258,827	-1,92	-2,093
2269,483	-1,9	-2,144
2280,126	-1,8	-2,078
2290,794	-0,88	-1,688
2301,449	-0,56	-1,515
2312,098	-0,78	-1,589
2322,754	-0,8	-1,564
2333,427	-0,08	-1,13
2344,101	0,38	-0,706
2354,774	0,72	-0,484
2365,417	1,02	-0,283
2376,073	1,74	-0,1
2386,728	1,74	-0,112
2397,39	1,22	-0,231
2408,063	2,02	-0,065
2418,724	1,84	-0,083
2429,38	1,42	-0,167
2440,023	1,28	-0,196
2450,685	0,72	-0,504
2461,352	0,9	-0,344
2472,013	0,92	-0,326
2482,669	0,7	-0,493
2493,324	0,9	-0,319
2503,979	0,5	-0,649
2514,629	0,24	-0,814
2525,296	0,18	-0,91
2535,952	-0,04	-1,144
2546,607	-0,6	-1,486
2557,269	-0,96	-1,703
2567,918	-1,04	-1,819
2578,561	-1,54	-2,078
2589,217	-1,6	-2,047
2599,866	-1,82	-2,115
2610,521	-1,82	-2,149
2621,195	-2,22	-2,359
2631,838	-3,44	-2,754
2642,512	-3,96	-2,906
2653,161	-5,5	-3,136
2663,822	-5,5	-3,497
2674,46	-5,52	-3,499
2685,103	-5,5	-3,496
2695,783	-5,5	-3,496
2706,42	-5,46	-3,494
2717,063	-5,46	-3,494
2727,725	-5,46	-3,496
2738,374	-5,44	-3,496
2749,035	-5,44	-3,494
2759,697	-5,42	-3,493
2770,34	-5,38	-3,49
2781,002	-5,2	-3,474
2791,657	-5,02	-3,455
2802,318	-4,34	-3,386
2812,968	-3,56	-3,28
2823,599	-2,66	-2,95
2834,249	-1,92	-2,617
2844,886	-1,48	-2,351
2855,517	-1,02	-1,925
2866,161	-0,36	-1,481
2876,798	0,24	-1,038
2887,448	0,4	-0,906
2898,109	0,46	-0,758
2908,752	2,36	-0,192
2919,396	2,36	-0,001
2930,063	2,36	-0,004
2940,695	2,34	-0,007
2951,332	2,28	-0,011
2961,981	2,04	-0,037
2972,619	0,84	-0,289
2983,274	0,54	-0,48
2993,936	0,18	-0,828
3004,591	0,2	-0,814
3015,234	0,14	-0,865
3025,884	0,36	-0,706
3036,545	0,34	-0,708
3047,188	0,36	-0,614
3057,838	0,54	-0,468
3068,493	0,44	-0,581
3079,143	0,56	-0,528
3089,804	0,44	-0,626
3100,471	0,56	-0,478
3111,109	1,04	-0,193
3121,758	1,44	-0,092
3132,42	2	-0,033
3143,063	2,18	-0,014
3153,724	2,24	-0,005
3164,38	2,26	-0,001
3175,017	2,24	-0,032
3185,673	2,04	-0,268
3196,172	2,24	-0,001