File: ensaios_Ciclicos/_newS/_2G60/entrada/_4.txt
Time (s)	Load (N)	Displacement (mm)
0	-0,1	-0,031
10,87	-4,34	-1,45
21,762	-11,84	-2,991
32,595	-16,38	-3,474
43,67	-12,46	-2,584
54,391	-7,8	-1,901
65,125	-4,12	-1,259
75,972	0,36	-0,225
86,495	-1,96	-0,769
97,031	-3,08	-1,104
107,566	-5,88	-1,679
118,102	-9,28	-2,244
128,661	-10,66	-2,512
139,196	-13,22	-2,923
149,738	-15,26	-3,45
160,303	-15,2	-3,499
170,881	-15,14	-3,499
181,458	-15,08	-3,498
192,029	-15,06	-3,495
202,619	-14,98	-3,494
213,184	-14,8	-3,489
223,732	-13,84	-3,436
234,285	-10,62	-3,192
244,844	-8,1	-2,773
255,434	-7	-2,506
266,017	-6	-2,331
276,601	-5,36	-2,158
287,154	-3,9	-1,882
297,743	-3,92	-1,956
308,321	-3,64	-1,851
318,91	-3,66	-1,86
329,487	-3,94	-1,92
340,071	-4,38	-2,037
350,654	-4	-2,001
361,226	-2,78	-1,69
371,785	-1,64	-1,288
382,363	-1,46	-1,253
392,928	-0,82	-1,148
403,505	-0,52	-1,102
414,083	-1,32	-1,23
424,66	-1,54	-1,302
435,243	-2,4	-1,572
445,839	-3,74	-1,925
456,41	-3,12	-1,946
466,994	-4,62	-2,141
477,583	-5,32	-2,363
488,136	-5,46	-2,303
498,714	-5,64	-2,422
509,291	-6,34	-2,536
519,869	-6,42	-2,586
530,428	-5	-2,386
540,993	-4,46	-2,108
551,565	-2,52	-1,704
562,154	-1,34	-1,314
572,72	-0,04	-1,017
583,297	0,52	-0,938
593,862	1,22	-0,795
604,41	1,4	-0,748
614,987	1,52	-0,654
625,589	3	-0,355
636,154	3,36	-0,001
646,737	3,4	-0,002
657,297	3,4	-0,008
667,886	3,34	-0,02
678,452	3,12	-0,038
689,029	3,04	-0,057
699,6	2,68	-0,105
710,166	1,44	-0,299
720,731	0,18	-0,51
731,297	0,76	-0,532
741,874	0,48	-0,493
752,427	-0,02	-0,619
763,017	-0,82	-0,996
773,594	-2,56	-1,462
784,16	-4,88	-1,919
794,719	-6,52	-2,198
805,296	-7,92	-2,498
815,88	-9,12	-2,632
826,439	-13,1	-3,267
836,999	-13,14	-3,499
847,57	-13,14	-3,499
858,141	-13,14	-3,498
868,713	-13,1	-3,499
879,29	-13,06	-3,499
889,867	-13,02	-3,5
900,445	-13	-3,284
911,016	-11,68	-3,022
921,588	-9,8	-2,799
932,153	-9,98	-2,763
942,719	-11,02	-2,943
953,296	-12,04	-3,086
963,867	-12,8	-3,42
974,439	-12,84	-3,495
985,034	-12,48	-3,475
995,587	-10,3	-3,346
1006,147	-6,64	-2,802
1016,7	-4,56	-2,477
1027,278	-4,26	-2,241
1037,843	-3,08	-1,932
1048,432	-1,24	-1,499
1058,986	1,06	-0,807
1069,545	3,06	-0,373
1080,111	3,58	0
1090,706	3,58	-0,001
1101,259	3,64	-0,002
1111,835	3,64	-0,008
1122,402	3,52	-0,027
1132,98	2,78	-0,099
1143,545	1,46	-0,346
1154,098	0,5	-0,65
1164,838	2,54	-0,144
1176,009	0,46	-0,957
1186,569	0,92	-0,826
1197,272	-1,14	-1,452
1208,179	-6,68	-2,988
1218,763	-6,1	-2,858
1229,328	-5,76	-2,807
1239,881	-4,96	-2,635
1250,447	-5,32	-2,626
1261,036	-4,7	-2,586
1271,596	-3,18	-2,157
1282,161	-1,66	-1,742
1292,732	-1,68	-1,698
1303,298	-1,94	-1,723
1313,887	-1,94	-1,83
1324,441	-2,12	-1,84
1334,994	-1,2	-1,562
1345,559	-1,86	-1,728
1356,137	-2,28	-1,984
1366,708	-2,64	-2,068
1377,28	-4,28	-2,524
1387,857	-5,92	-2,972
1398,428	-7,5	-3,315
1409,006	-8,14	-3,43
1419,571	-9,52	-3,478
1430,149	-9,62	-3,496
1440,714	-9,54	-3,498
1451,273	-9,44	-3,499
1461,857	-9,28	-3,31
1472,41	-8,2	-3,071
1482,976	-7,18	-2,929
1493,553	-5,24	-2,543
1504,106	-4,24	-2,39
1514,666	-3,94	-2,345
1525,249	-2,36	-1,984
1535,791	-1,62	-1,779
1546,368	-0,46	-1,394
1556,933	0,02	-1,181
1567,499	0,4	-0,984
1578,082	0,68	-0,835
1588,636	0,92	-0,751
1599,201	1,12	-0,55
1609,784	1,94	-0,27
1620,356	2,72	-0,09
1630,933	3,44	-0,022
1641,517	3,54	-0,009
1652,082	3,54	-0,004
1662,659	3,52	-0,001
1673,231	3,5	-0,16
1683,802	2,12	-0,638
1694,385	0	-1,202
1704,951	-0,56	-1,437
1715,522	-1,68	-1,918
1726,088	-2,7	-2,387
1736,653	-3,5	-2,616
1747,23	-3,78	-2,793
1757,802	-4,86	-3,063
1768,355	-5,94	-3,338
1779,137	-7,82	-3,498
1790,08	-1,06	-1,705
1800,849	1,98	-0,273
1811,427	2,56	-0,104
1821,992	3,22	-0,033
1832,552	3,44	-0,015
1843,111	3,46	-0,012
1853,676	3,44	-0,009
1864,248	3,46	-0,004
1874,813	3,46	-0,002
1885,379	3,44	-0,042
1895,95	3,42	0
1906,509	3,42	-0,001
1917,093	3,42	0
1927,67	3,4	-0,012
1938,26	3,08	-0,317
1948,825	3,32	-0,28
1959,402	2,88	-0,457
1969,992	1,9	-0,685
1980,551	0,88	-0,916
1991,117	1,2	-0,821
2001,694	2,1	-0,611
2012,247	3,36	-0,176
2022,807	3,38	-0,001
2033,378	3,38	0
2043,944	3,36	-0,006
2054,515	3,34	-0,006
2065,092	3,34	0
2075,64	3,36	-0,001
2086,217	3,36	-0,001
2096,777	3,36	-0,003
2107,558	2,86	-0,478
2118,225	0,22	-1,249
2129,187	-5,34	-3,371
2139,872	-6,78	-3,48
2150,419	-6,52	-3,472
2160,997	-6,26	-3,444
2171,568	-6,12	-3,437
2182,116	-5,62	-3,404
2192,687	-6,4	-3,457
2203,252	-6,46	-3,467
2213,812	-6,28	-3,45
2224,383	-6,22	-3,44
2234,955	-5,36	-3,379
2245,526	-4,48	-3,286
2256,085	-3,86	-3,108
2266,645	-4,26	-3,216
2277,222	-5,06	-3,342
2287,764	-4,68	-3,289
2298,317	-4,88	-3,353
2308,888	-5,28	-3,383
2319,448	-4	-3,152
2330,013	-2,58	-2,78
2340,591	-2,1	-2,542
2351,156	-1,72	-2,255
2361,733	-1,3	-2,097
2372,281	-0,86	-1,722
2382,858	-0,68	-1,573
2393,424	-0,04	-1,202
2404,001	0,54	-0,928
2414,596	1,36	-0,706
2425,168	2,7	-0,442
2435,751	3,04	-0,154
2446,317	3,06	0
2456,87	3,06	-0,001
2467,429	3,04	-0,003
2477,977	3,04	-0,006
2488,74	3,02	0
2499,576	0,38	-1,043
2510,153	1,14	-0,783
2520,706	2,58	-0,28
2531,266	2,98	0
2541,831	2,98	-0,001
2552,396	2,98	-0,001
2562,962	2,96	-0,003
2573,521	2,92	-0,01
2584,075	2,92	-0,009
2594,628	2,92	-0,009
2605,187	2,92	-0,006
2615,747	2,9	-0,009
2626,3	2,92	-0,005
2636,866	2,92	-0,003
2647,437	2,9	-0,001
2657,996	2,88	-0,003
2668,544	2,52	-0,338
2679,103	1,66	-0,633
2689,675	0,48	-0,909
2700,246	0,12	-1,115
2710,841	-0,64	-1,696
2721,395	-1,06	-1,998
2731,948	-1,18	-2,151
2742,508	-1,52	-2,398
2753,073	-2,04	-2,611
2763,638	-2,24	-2,818
2774,216	-3,14	-3,15
2784,781	-3,86	-3,338
2795,353	-4,3	-3,374
2805,924	-4,7	-3,428
2816,489	-5,46	-3,483
2827,055	-5,5	-3,493
2837,62	-5,54	-3,497
2848,168	-5,52	-3,498
2858,739	-5,5	-3,5
2869,298	-5,5	-3,208
2879,9	-2,88	-2,595
2890,453	-1,86	-2,278
2901,025	-1,16	-1,992
2911,584	-0,84	-1,815
2922,161	-0,2	-1,402
2932,715	0,1	-1,053
2943,274	0,38	-0,801
2953,84	1,08	-0,322
2964,411	1,78	-0,098
2974,982	2,5	-0,026
2985,566	2,62	-0,007
2996,125	2,66	-0,002
3006,679	2,64	-0,001
3017,232	2,64	-0,053
3027,803	2,22	-0,392
3038,387	0,72	-0,846
3048,952	-0,22	-1,355
3059,517	-0,68	-1,798
3070,095	-1,22	-2,247
3080,642	-1,6	-2,54
3091,208	-2,24	-2,96
3101,797	-2,9	-3,16
3112,357	-3,54	-3,318
3122,91	-4,54	-3,421
3133,757	-5,32	-3,456
3144,323	-4,48	-3,024
3154,912	-2,22	-2,478
3165,471	-1,14	-2,012
3170,397	2,56	0