File: Cycling_tests/sem_TC/entrada/_2.txt
Time (s)	Load (N)	Displacement (mm)
0	0	-0,035
10,781	2	-0,018
21,502	2,5	-0,001
32,23	3	-0,005
42,945	2,5	-0,013
53,685	3	-0,013
64,43	2,5	-0,02
75,145	2	-0,04
85,861	0	-0,138
96,589	-0,5	-0,285
107,327	-2,5	-0,47
118,055	-2	-0,421
128,776	0	-0,184
139,498	0	-0,122
150,231	1,5	-0,085
160,958	1,5	-0,07
171,716	3	-0,028
182,461	3,5	-0,01
193,201	3,5	-0,007
203,946	3,5	-0,005
214,691	3,5	-0,005
225,449	3,5	-0,005
236,212	3,5	-0,002
246,958	3,5	-0,002
257,721	3,5	-0,002
268,478	3,5	-0,001
279,248	3,5	-0,001
289,999	3,5	-0,005
300,792	3,5	-0,007
311,55	3,5	-0,006
322,325	3,5	-0,002
333,089	3,5	-0,001
343,84	3	-0,321
354,597	-1,5	-0,789
365,373	-5,5	-1,266
376,136	-7,5	-1,623
386,923	-11	-2,067
397,681	-14	-2,332
408,438	-15,5	-2,502
419,202	-15	-2,46
429,983	-16	-2,69
440,758	-19,5	-2,937
451,529	-22,5	-3,085
462,285	-26	-3,349
473,055	-27	-3,43
483,794	-29	-3,472
494,551	-29,5	-3,486
505,315	-29,5	-3,491
516,096	-29,5	-3,498
526,859	-29,5	-3,499
537,641	-29,5	-3,499
548,41	-29,5	-3,5
559,156	-29,5	-3,432
569,937	-25,5	-2,96
580,7	-22	-2,596
591,47	-18,5	-2,262
602,227	-15,5	-2,061
612,997	-11	-1,716
623,766	-8	-1,42
634,517	-6	-1,234
645,263	-6	-1,189
656,026	-3,5	-0,88
666,795	-2,5	-0,662
677,571	-0,5	-0,504
688,334	-0,5	-0,459
699,104	0,5	-0,185
709,867	3	-0,062
720,636	4	-0,016
731,388	4	-0,008
742,157	4	-0,004
752,939	4	-0,001
763,696	4	-0,001
774,471	4	-0,011
785,229	4	-0,214
795,992	3	-0,452
806,743	0	-0,724
817,507	-3,5	-1,108
828,264	-5	-1,405
839,016	-5,5	-1,563
849,773	-7	-1,77
860,524	-8,5	-1,918
871,27	-10,5	-2,17
882,063	-14,5	-2,54
892,827	-19,5	-3,024
903,578	-25	-3,39
914,335	-27,5	-3,484
925,093	-27,5	-3,496
935,862	-27,5	-3,499
946,613	-24	-3,01
957,365	-18	-2,239
968,128	-9	-1,626
978,874	-3,5	-1,073
989,643	-0,5	-0,536
1000,4	2,5	-0,104
1011,14	3,5	-0,041
1021,903	4	-0,017
1032,655	4	-0,005
1043,394	4	-0,002
1054,151	4	0
1064,909	4	-0,276
1075,678	2	-0,576
1086,435	-1,5	-0,887
1097,205	-4,5	-1,372
1107,968	-6,5	-1,813
1118,732	-9	-2,14
1129,477	-14	-2,677
1140,228	-17,5	-3,081
1150,986	-24	-3,396
1161,737	-26,5	-3,48
1172,489	-27	-3,496
1183,258	-27	-3,499
1194,021	-27	-3,33
1204,785	-24	-2,959
1215,548	-18	-2,458
1226,299	-15	-2,239
1237,063	-9,5	-1,77
1247,832	-7,5	-1,526
1258,578	-6	-1,435
1269,341	-4,5	-1,193
1280,098	-3	-0,983
1290,868	-1	-0,579
1301,619	0	-0,42
1312,377	2,5	-0,103
1323,122	3	-0,076
1333,879	3,5	-0,034
1344,625	4	-0,012
1355,382	4	-0,004
1366,133	4	-0,003
1376,891	4	-0,001
1387,648	4	0
1398,406	4	0
1409,157	4	-0,231
1419,926	0	-0,676
1430,696	-2,5	-0,993
1441,465	-3,5	-1,264
1452,241	-5,5	-1,677
1462,992	-7,5	-1,953
1473,755	-10,5	-2,322
1484,519	-13,5	-2,54
1495,282	-14,5	-2,665
1506,028	-15,5	-2,937
1516,785	-19,5	-3,122
1527,554	-18,5	-3,215
1538,318	-22	-3,342
1549,063	-23,5	-3,409
1559,838	-25	-3,478
1570,584	-25,5	-3,49
1581,335	-25,5	-3,494
1592,099	-25,5	-3,496
1602,844	-25,5	-3,497
1613,595	-25,5	-3,498
1624,347	-25,5	-3,499
1635,098	-25,5	-3,499
1645,838	-25	-3,5
1656,601	-25	-3,44
1667,346	-25	-3,326
1678,098	-25	-3,294
1688,849	-24	-3,126
1699,6	-24	-3,04
1710,364	-18,5	-2,746
1721,115	-17	-2,586
1731,873	-15	-2,419
1742,618	-14	-2,315
1753,363	-12,5	-2,275
1764,121	-11	-2,07
1774,866	-10	-2,075
1785,606	-8,5	-1,885
1796,351	-6,5	-1,686
1807,102	-5	-1,538
1817,848	-4,5	-1,428
1828,605	-3,5	-1,293
1839,356	-3	-1,276
1850,108	-3	-1,238
1860,865	-1,5	-0,923
1871,611	-1	-0,74
1882,368	0	-0,481
1893,119	0,5	-0,449
1903,865	1	-0,284
1914,622	2,5	-0,137
1925,38	4	-0,064
1936,143	4,5	-0,021
1946,888	4,5	-0,019
1957,64	4,5	-0,014
1968,403	4,5	-0,006
1979,154	4,5	-0,004
1989,906	4,5	-0,002
2000,657	4,5	-0,001
2011,409	4,5	0
2022,16	4,5	-0,03
2032,917	4,5	-0,13
2043,657	4,5	0
2054,414	4,5	-0,018
2065,16	4,5	-0,001
2075,923	4,5	-0,001
2086,662	4,5	-0,002
2097,414	4,5	-0,002
2108,171	4,5	-0,001
2118,928	4,5	-0,001
2129,68	4,5	-0,001
2140,437	4,5	-0,002
2151,189	4,5	-0,002
2161,946	4,5	-0,001
2172,703	4,5	-0,001
2183,437	4,5	0
2194,182	4,5	-0,004
2204,94	4,5	-0,07
2215,685	4,5	-0,274
2226,436	3,5	-0,405
2237,2	2	-0,572
2247,951	4	-0,32
2258,696	4,5	0
2269,436	4,5	0
2280,181	4,5	0
2290,927	4,5	-0,036
2301,672	4,5	-0,162
2312,417	4,5	-0,286
2323,175	3,5	-0,418
2333,932	3	-0,459
2344,69	1	-0,611
2355,429	2,5	-0,482
2366,18	2	-0,588
2376,95	2	-0,508
2387,707	3,5	-0,368
2398,465	3,5	-0,323
2409,222	4	-0,217
2419,973	4	-0,278
2430,731	4	-0,076
2441,482	4	0
2452,239	4	0
2462,991	4	-0,001
2473,748	4	-0,001
2484,506	4	-0,001
2495,257	4	-0,001
2506,02	4	-0,002
2516,772	4	-0,002
2527,535	4	-0,002
2538,299	4,5	-0,001
2549,056	4	0
2559,801	4,5	-0,001
2570,553	4,5	-0,001
2581,298	4,5	-0,001
2592,055	4,5	-0,001
2602,813	4	-0,001
2613,564	4,5	-0,002
2624,322	4	-0,004
2635,061	4	-0,006
2645,812	4,5	-0,004
2656,624	4,5	-0,001
2667,357	4,5	-0,003
2678,127	4,5	-0,006
2688,866	4,5	-0,011
2699,629	4	-0,008
2710,375	4	-0,022
2721,138	4	-0,024
2731,895	3	-0,08
2742,647	1,5	-0,222
2753,404	1,5	-0,575
2764,168	1,5	-0,712
2774,913	0,5	-0,998
2785,664	1	-0,998
2796,422	0,5	-1,196
2807,161	0	-1,492
2817,919	0	-1,752
2828,682	-0,5	-1,803
2839,427	-1	-2,009
2850,185	-1	-2,102
2860,936	-2	-2,373
2871,705	-3	-2,5
2882,469	-3,5	-2,69
2893,22	-6	-2,936
2903,972	-10,5	-3,366
2914,723	-10,5	-3,498
2925,474	-10,5	-3,497
2936,214	-10,5	-3,487
2946,995	-10,5	-3,476
2957,759	-10	-3,466
2968,504	-9,5	-3,444
2979,255	-6	-3,283
2990,019	-6,5	-3,308
3000,77	-5	-3,078
3011,515	-3	-2,73
3022,267	-2	-2,549
3033,024	-2	-2,53
3043,776	-2	-2,43
3054,521	-1,5	-2,298
3065,278	-1	-1,956
3076,036	-1	-1,854
3086,787	-0,5	-1,599
3097,545	-0,5	-1,32
3108,29	-0,5	-1,221
3119,036	-0,5	-1,132
3129,781	-0,5	-1,198
3140,538	-0,5	-1,052
3151,283	0,5	-0,772
3162,029	0,5	-0,822
3172,786	0,5	-0,746
3183,532	1	-0,658
3194,289	2	-0,501
3205,04	3,5	-0,39
3215,804	3,5	-0,337
3220,004	4	-0,001