File: Cycling_tests/sem_TC/entrada/_3.txt
Time (s)	Load (N)	Displacement (mm)
0	0	-0,022
10,479	1,5	-0,003
20,918	1,5	-0,018
31,358	-2,5	-0,305
41,803	-11,5	-1,213
52,452	-9,5	-1,011
63,114	-5	-0,59
73,601	-9	-1,106
84,083	-10,5	-1,211
94,636	-10	-1,244
105,687	2,5	-0,002
116,373	2	-0,314
127,256	-9,5	-1,566
137,84	-8,5	-1,486
149,077	-32,5	-3,5
159,876	-24	-2,641
170,784	-6	-0,904
181,517	-0,5	-0,273
191,992	-4	-0,736
202,462	-7,5	-1,078
212,931	-9,5	-1,366
223,383	-16,5	-1,738
233,852	-16,5	-1,878
244,321	-20,5	-2,3
254,785	-21	-2,41
265,326	-19	-2,248
275,808	-23,5	-2,662
286,325	-22	-2,546
296,8	-26	-2,79
307,264	-26	-2,884
317,733	-25	-2,746
328,179	-28	-2,928
338,654	-28	-2,961
349,129	-28	-3,006
359,587	-30,5	-3,235
370,056	-30,5	-3,365
380,526	-30	-3,495
391,019	-30	-3,495
401,512	-30	-3,5
411,982	-30	-3,5
422,463	-30	-3,499
432,939	-29,5	-3,499
443,42	-29,5	-3,499
453,883	-29,5	-3,496
464,353	-29,5	-3,494
474,846	-29,5	-3,187
485,34	-28,5	-3,137
495,821	-26	-2,96
506,302	-29	-3,061
516,79	-25	-2,96
527,283	-23	-2,694
537,777	-22,5	-2,66
548,258	-21,5	-2,547
558,751	-20	-2,423
569,245	-16,5	-2,193
579,726	-14	-1,98
590,22	-11	-1,642
600,719	-9	-1,456
611,218	-6,5	-1,196
621,694	-5	-1,056
632,193	-3	-0,747
642,687	-1,5	-0,538
653,168	0	-0,274
663,643	0	-0,237
674,125	1,5	-0,127
684,618	3	-0,039
695,112	3	-0,026
705,593	3,5	-0,02
716,122	3,5	-0,007
726,634	3,5	-0,003
737,133	3,5	-0,001
747,627	3,5	-0,09
758,114	3,5	-0,157
768,625	3,5	-0,255
779,131	3,5	-0,181
789,642	3,5	-0,244
800,124	3,5	-0,086
810,599	3,5	-0,25
821,098	3,5	-0,263
831,61	3,5	-0,232
842,115	3	-0,35
852,609	3	-0,281
863,114	2	-0,451
873,613	2	-0,461
884,131	0	-0,615
894,63	1,5	-0,519
905,112	3,5	-0,196
915,611	3,5	-0,224
926,092	3,5	0
936,58	3,5	-0,001
947,073	3,5	-0,001
957,573	3,5	-0,001
968,072	3,5	-0,001
978,559	3,5	-0,001
989,041	3,5	-0,001
999,534	3,5	0
1010,04	3,5	-0,138
1020,539	3,5	-0,012
1031,038	3,5	-0,001
1041,514	3,5	-0,001
1052,001	3,5	-0,001
1062,477	3,5	-0,002
1072,976	3,5	-0,002
1083,481	3,5	-0,001
1093,969	3,5	-0,002
1104,468	3,5	-0,001
1114,968	4	-0,001
1125,437	3,5	-0,001
1135,936	3,5	-0,002
1146,412	3,5	-0,002
1156,899	3,5	-0,001
1167,393	3,5	0
1177,88	3,5	-0,108
1188,379	3	-0,3
1198,879	3,5	-0,19
1209,36	3,5	-0,202
1219,842	3,5	-0,018
1230,341	3,5	-0,115
1240,828	3,5	-0,177
1251,328	3,5	-0,222
1261,821	3,5	-0,289
1272,303	3,5	-0,29
1282,808	3	-0,384
1293,295	0,5	-0,645
1303,783	-1,5	-0,866
1314,27	-2,5	-1,024
1324,764	-3	-1,207
1335,245	-4	-1,318
1345,738	-4,5	-1,457
1356,226	-4,5	-1,532
1366,701	-4,5	-1,502
1377,195	-5	-1,526
1387,688	-3	-1,315
1398,193	-4	-1,334
1408,681	-4,5	-1,535
1419,174	-5,5	-1,695
1429,662	-6,5	-1,853
1440,161	-8	-2,056
1450,648	-8	-2,096
1461,13	-9,5	-2,166
1471,611	-9	-2,097
1482,105	-9	-2,205
1492,586	-9	-2,237
1503,079	-10	-2,293
1513,567	-10	-2,27
1524,06	-9	-2,23
1534,548	-9	-2,157
1545,041	-10,5	-2,395
1555,534	-9,5	-2,27
1566,028	-9	-2,181
1576,515	-7,5	-2,067
1587,015	-9	-2,21
1597,502	-8,5	-2,118
1607,995	-8	-2,105
1618,489	-11	-2,426
1628,976	-12,5	-2,606
1639,47	-14	-2,708
1649,945	-15	-2,827
1660,438	-14,5	-2,76
1670,926	-15	-2,881
1681,413	-17	-3,076
1691,889	-17	-3,031
1702,37	-18	-3,126
1712,869	-21,5	-3,38
1723,369	-19,5	-3,417
1733,856	-24	-3,465
1744,356	-24,5	-3,484
1754,861	-24,5	-3,488
1765,336	-24	-3,484
1775,824	-24,5	-3,492
1786,305	-24	-3,493
1796,781	-24	-3,488
1807,262	-24	-3,488
1817,743	-24	-3,492
1828,231	-24	-3,493
1838,724	-23	-3,492
1849,206	-23	-3,49
1859,687	-22,5	-3,486
1870,162	-22	-3,471
1880,644	-21	-3,442
1891,149	-20,5	-3,443
1901,619	-16,5	-3,345
1912,106	-15	-3,2
1922,587	-12	-2,918
1933,081	-10	-2,714
1943,562	-9	-2,576
1954,032	-5,5	-2,192
1964,519	-4,5	-1,936
1975,019	-4,5	-1,786
1985,506	-3,5	-1,708
1996,011	-3,5	-1,718
2006,493	-2,5	-1,458
2016,98	-2	-1,232
2027,467	-1	-1,088
2037,955	-0,5	-0,874
2048,442	2,5	-0,487
2058,924	4	-0,232
2069,411	4	-0,142
2079,892	4	-0,001
2090,38	4	-0,004
2100,861	4	-0,014
2111,355	4	-0,018
2121,836	4	-0,039
2132,317	3,5	-0,065
2142,805	3	-0,132
2153,286	2	-0,245
2163,78	1,5	-0,453
2174,261	1	-0,675
2184,748	0,5	-0,794
2195,23	0,5	-0,92
2205,711	0	-1,219
2216,199	-0,5	-1,396
2226,674	-1	-1,616
2237,156	-2	-1,76
2247,643	-1	-1,703
2258,124	-1	-1,665
2268,6	-1	-1,62
2279,069	-1	-1,69
2289,545	-1,5	-1,859
2300,02	-2	-2,026
2310,495	-3,5	-2,38
2320,983	-3,5	-2,376
2331,464	-3	-2,269
2341,94	-3	-2,241
2352,427	-3,5	-2,147
2362,902	-1,5	-2,017
2373,372	-2	-2,14
2383,841	-2,5	-2,2
2394,317	-1,5	-2,097
2404,798	-2	-2,124
2415,267	-2,5	-2,205
2425,743	-3	-2,303
2436,218	-3	-2,344
2446,688	-3,5	-2,514
2457,169	-3,5	-2,515
2467,65	-5,5	-2,753
2478,132	-6	-2,844
2488,601	-10,5	-3,1
2499,071	-11,5	-3,28
2509,552	-10,5	-3,15
2520,027	-8,5	-3,024
2530,514	-7,5	-2,93
2541,002	-5,5	-2,83
2551,484	-7,5	-2,979
2561,977	-9	-3,041
2572,464	-10,5	-3,139
2582,952	-10	-3,119
2593,427	-10,5	-3,197
2603,915	-11	-3,215
2614,402	-9,5	-3,119
2624,883	-9	-3,098
2635,377	-6,5	-2,957
2645,858	-8	-3,047
2656,346	-8,5	-3,017
2666,839	-4,5	-2,766
2677,326	-3	-2,432
2687,82	-3	-2,461
2698,301	-3,5	-2,574
2708,795	-3	-2,465
2719,282	-4	-2,62
2729,769	-4,5	-2,718
2740,275	-4,5	-2,645
2750,768	-7,5	-2,861
2761,25	-8,5	-3,021
2771,725	-10,5	-3,272
2782,212	-11	-3,492
2792,7	-11	-3,497
2803,205	-10,5	-3,5
2813,699	-11	-3,5
2824,186	-11	-3,499
2834,679	-11	-3,498
2845,173	-11	-3,498
2855,648	-11	-3,496
2866,118	-10,5	-3,49
2876,599	-10,5	-3,462
2887,092	-8	-3,401
2897,58	-7,5	-3,328
2908,049	-5	-3,11
2918,543	-5	-3,085
2929,03	-4	-2,929
2939,505	-4	-2,873
2949,975	-3,5	-2,776
2960,462	-3	-2,62
2970,95	-2,5	-2,548
2981,431	-2,5	-2,433
2991,912	-2	-2,231
3002,4	-2	-2,134
3012,899	-1,5	-2,038
3023,375	-1	-1,69
3033,862	-1	-1,529
3044,349	-1	-1,463
3054,843	-0,5	-1,422
3065,318	-1	-1,33
3075,806	-1	-1,263
3086,287	-0,5	-1,248
3096,774	-0,5	-1,076
3107,268	-0,5	-0,908
3117,749	1	-0,595
3128,243	0	-0,734
3138,73	0,5	-0,731
3149,049	4	0