File: Cycling_tests/sem_TC/entrada/_8.txt
Time (s)	Load (N)	Displacement (mm)
0	0	-0,035
10,847	1,5	-0,196
21,616	2	-0,217
32,386	2	-0,221
43,149	1,5	-0,331
53,924	1,5	-0,426
64,682	-1	-0,676
75,439	-4	-0,933
86,214	-4,5	-0,957
96,996	-6	-1,214
107,777	-9	-1,517
118,559	-10	-1,71
129,334	-13	-1,995
140,127	-16	-2,274
150,909	-18	-2,451
161,704	-21	-2,702
172,502	-23,5	-2,974
183,301	-26	-3,213
194,094	-27	-3,414
204,906	-32	-3,485
215,741	-32	-3,498
226,516	-32	-3,499
237,328	-32	-3,228
248,133	-28	-2,935
258,938	-21,5	-2,515
269,732	-16	-1,934
280,549	-8,5	-1,29
291,343	-3	-0,58
302,124	1	-0,127
312,947	3,5	-0,014
323,759	3,5	-0,002
334,558	3,5	-0,001
345,376	3,5	-0,3
356,175	1	-0,541
366,986	-3	-0,873
377,81	-7	-1,5
388,609	-8,5	-1,702
399,414	-13	-2,233
410,25	-18	-2,657
421,067	-22,5	-3,116
431,879	-27,5	-3,417
442,678	-29	-3,458
453,495	-30	-3,487
464,307	-30	-3,496
475,118	-30	-3,498
485,936	-30	-3,499
496,733	-30	-3,456
507,534	-25,5	-2,917
518,346	-21	-2,584
529,145	-19,5	-2,418
539,968	-19,5	-2,399
550,786	-16	-2,133
561,609	-15	-1,985
572,403	-11	-1,69
583,202	-11	-1,705
593,995	-8	-1,448
604,819	-5	-1,05
615,618	-2	-0,661
626,423	-1	-0,45
637,235	1	-0,169
648,046	2,5	-0,06
658,864	3,5	-0,021
669,687	3,5	-0,008
680,493	3,5	-0,004
691,298	3,5	-0,004
702,115	3,5	-0,001
712,927	3,5	-0,035
723,714	3,5	-0,141
734,513	3,5	-0,254
745,307	3	-0,368
756,112	2	-0,428
766,917	0	-0,634
777,729	0	-0,566
788,534	0	-0,576
799,334	-1	-0,806
810,145	-3	-1,037
820,95	-4	-1,232
831,75	-3,5	-1,116
842,549	-3,5	-1,172
853,343	-4	-1,147
864,154	-4	-1,282
874,959	-4,5	-1,286
885,771	-4,5	-1,379
896,582	-6	-1,626
907,405	-7	-1,772
918,217	-7,5	-1,823
929,028	-6,5	-1,761
939,84	-6	-1,663
950,645	-8	-1,932
961,456	-10,5	-2,217
972,274	-11,5	-2,332
983,079	-13,5	-2,497
993,878	-14,5	-2,605
1004,678	-15	-2,696
1015,465	-18	-2,902
1026,271	-20,5	-3,162
1037,07	-24	-3,388
1047,863	-27	-3,473
1058,657	-27	-3,485
1069,444	-27	-3,491
1080,238	-27	-3,494
1091,031	-27	-3,496
1101,83	-27	-3,499
1112,624	-27	-3,499
1123,417	-27	-3,472
1134,21	-27	-3,36
1145,004	-24,5	-3,06
1155,797	-21,5	-2,861
1166,603	-19,5	-2,633
1177,402	-15,5	-2,334
1188,201	-12,5	-2,063
1199,001	-11	-1,94
1209,812	-10	-1,825
1220,618	-9	-1,753
1231,417	-7,5	-1,6
1242,222	-6	-1,445
1253,022	-4	-1,124
1263,827	-2,5	-0,855
1274,632	-1	-0,675
1285,45	0	-0,398
1296,249	0	-0,238
1307,067	1,5	-0,133
1317,872	3	-0,053
1328,677	3,5	-0,033
1339,483	3,5	-0,028
1350,276	4	-0,017
1361,082	4	-0,014
1371,887	3,5	-0,007
1382,692	4	-0,004
1393,504	4	-0,004
1404,303	4	-0,005
1415,114	4	-0,004
1425,92	4	-0,004
1436,719	3,5	-0,004
1447,525	4	-0,003
1458,33	4	-0,002
1469,135	4	-0,002
1479,935	4	-0,002
1490,758	4	-0,001
1501,563	4	-0,001
1512,375	4	-0,001
1523,18	4	-0,001
1533,998	4	0
1544,809	4	-0,001
1555,614	4	0
1566,414	4	0
1577,213	4	-0,001
1588,013	4	-0,001
1598,818	4	-0,001
1609,623	4	-0,001
1620,429	4	-0,001
1631,24	4	-0,001
1642,045	4	0
1652,851	4	0
1663,656	4	-0,031
1674,45	4	0
1685,249	4	0
1696,048	4	-0,082
1706,842	4	-0,135
1717,647	3,5	-0,299
1728,471	2,5	-0,432
1739,27	3	-0,416
1750,063	1	-0,511
1760,863	0	-0,697
1771,674	-2	-0,997
1782,467	-1	-0,889
1793,267	-1	-0,836
1804,066	-1	-0,847
1814,866	-1	-0,87
1825,671	-1,5	-0,932
1836,464	-1	-0,855
1847,258	-0,5	-0,778
1858,069	-2,5	-1,152
1868,863	-2,5	-1,118
1879,65	-2	-1,06
1890,449	-2,5	-1,139
1901,255	-3,5	-1,378
1912,054	-4,5	-1,581
1922,865	-6	-1,923
1933,665	-6	-1,928
1944,464	-7,5	-2,136
1955,27	-7,5	-2,104
1966,075	-8,5	-2,251
1976,874	-10,5	-2,496
1987,668	-12	-2,642
1998,461	-15	-2,98
2009,267	-20	-3,332
2020,066	-22	-3,418
2030,853	-22,5	-3,459
2041,659	-23	-3,485
2052,458	-24	-3,496
2063,251	-23,5	-3,497
2074,063	-23,5	-3,498
2084,874	-23,5	-3,499
2095,662	-23	-3,489
2106,461	-23	-3,359
2117,266	-23	-3,207
2128,066	-22	-3,115
2138,871	-22,5	-3,116
2149,67	-22,5	-3,228
2160,476	-19,5	-3,03
2171,275	-20	-3,084
2182,075	-20,5	-3,104
2192,874	-21	-3,316
2203,673	-20,5	-3,361
2214,461	-19,5	-3,5
2225,266	-19,5	-3,414
2236,072	-19	-3,315
2246,859	-18,5	-3,298
2257,67	-16,5	-3,147
2268,47	-18	-3,207
2279,275	-17	-3,136
2290,08	-17	-3,29
2300,88	-17	-3,5
2311,679	-16,5	-3,499
2322,479	-16	-3,499
2333,278	-16	-3,499
2344,077	-16	-3,499
2354,871	-15,5	-3,498
2365,67	-15,5	-3,498
2376,476	-15	-3,498
2387,275	-15,5	-3,498
2398,068	-15	-3,498
2408,868	-15	-3,498
2419,667	-14,5	-3,498
2430,472	-15	-3,498
2441,278	-14,5	-3,498
2452,077	-14	-3,498
2462,883	-13,5	-3,499
2473,67	-13	-3,498
2484,469	-12,5	-3,498
2495,263	-12,5	-3,499
2506,068	-12,5	-3,498
2516,873	-12	-3,499
2527,661	-12	-3,499
2538,454	-12	-3,499
2549,26	-11,5	-3,5
2560,065	-11,5	-3,499
2570,858	-11,5	-3,499
2581,652	-11,5	-3,499
2592,439	-11	-3,499
2603,239	-11	-3,499
2614,044	-11	-3,467
2624,849	-11	-3,17
2635,661	-6,5	-2,88
2646,442	-6	-2,938
2657,241	-4,5	-2,729
2668,035	-6	-2,875
2678,834	-4,5	-2,731
2689,628	-5	-2,798
2700,433	-6	-2,878
2711,232	-4,5	-2,708
2722,038	-3	-2,602
2732,837	-2,5	-2,453
2743,625	-3,5	-2,644
2754,418	-3	-2,568
2765,223	-5,5	-2,834
2776,011	-9	-3,033
2786,804	-10	-3,326
2797,609	-10	-3,5
2808,403	-10	-3,498
2819,202	-10	-3,494
2830,002	-9	-3,446
2840,807	-4,5	-2,953
2851,612	-2,5	-2,262
2862,412	-1,5	-2,013
2873,211	-1,5	-1,993
2884,017	-1	-1,571
2894,822	-0,5	-1,086
2905,627	1,5	-0,686
2916,415	3	-0,462
2927,214	3,5	-0,334
2938,019	4	-0,022
2948,813	4	-0,001
2959,606	4	-0,005
2970,406	4	-0,01
2981,205	4	-0,023
2992,016	3,5	-0,02
3002,816	4	-0,016
3013,621	4	-0,021
3024,42	2	-0,149
3035,22	1,5	-0,481
3046,025	1	-0,609
3056,831	0,5	-1,116
3067,636	0	-1,872
3078,435	-1	-2,174
3089,229	-1,5	-2,39
3100,022	-1,5	-2,371
3110,822	-1	-2,264
3121,639	-1	-2,27
3132,432	-3	-2,713
3143,244	-2,5	-2,567
3154,049	-1,5	-2,276
3164,842	-1,5	-2,46
3175,648	-1,5	-2,369
3186,447	-1,5	-2,289
3197,247	-1	-2,278
3208,046	-1,5	-2,416
3218,845	-1	-2,441
3229,633	-3	-2,591
3234,84	4	0