File: Cycling_tests/_40perc/_2gap/entrada/_1.txt
Time (s)	Load (N)	Displacement (mm)
0	0	-0,035
10,115	-4	-0,758
20,01	-21,5	-3,492
29,914	-2	-0,858
39,843	-0,5	-0,405
49,784	-20,5	-3,325
59,714	-10	-2,502
69,655	2	-0,005
79,573	-11,5	-2,234
89,532	-18,5	-3,455
99,48	0	-0,655
109,409	-0,5	-0,496
119,344	-19	-3,5
129,28	-5	-1,767
139,239	0	-0,248
149,205	-18,5	-3,5
159,164	-6,5	-2,151
169,087	2,5	-0,004
179,065	-9,5	-2,173
189	-15,5	-3,377
198,948	2,5	0
208,937	-3	-1,313
218,903	-18	-3,493
228,862	-1,5	-0,953
238,821	-0,5	-0,66
248,775	-17,5	-3,498
258,728	-4	-1,721
268,676	2,5	-0,036
278,629	-14	-2,82
288,601	-11	-3,017
298,578	2,5	-0,003
308,556	-2,5	-1,218
318,521	-17	-3,492
328,486	-2,5	-1,335
338,434	0,5	-0,237
348,393	-16	-3,172
358,377	-9	-2,745
368,342	3	-0,002
378,301	-4	-1,556
388,267	-16,5	-3,488
398,244	-2,5	-1,199
408,2	1	-0,316
418,163	-16	-3,42
428,147	-6,5	-2,39
474,338	-0,5	-0,908
484,303	1	-0,243
494,257	-15,5	-3,309
504,216	-6	-2,474
514,17	3	-0,002
524,129	-5	-1,896
534,083	-14	-3,417
544,042	3	-0,358
553,989	-2,5	-1,303
563,937	-15,5	-3,486
573,884	0	-0,718
583,838	-0,5	-0,92
593,779	-15	-3,496
603,745	-3	-1,587
613,686	1,5	-0,091
623,633	-14	-3,02
633,593	-7,5	-2,706
643,546	3	-0,001
653,494	-2,5	-1,416
663,453	-15	-3,494
673,395	-2	-1,347
683,372	2,5	-0,056
693,313	-10	-2,636
703,267	-12,5	-3,328
713,256	0	-0,843
723,192	0	-0,512
733,127	-15	-3,492
743,069	-6	-2,482
753,016	3	-0,001
762,969	-2	-1,426
772,923	-15	-3,497
782,858	-3,5	-1,911
792,812	3	-0,007
802,759	-4	-1,865
812,708	-15	-3,478
822,66	-1,5	-1,191
832,608	2	-0,085
842,555	-9	-2,486
852,484	-13	-3,401
862,432	-0,5	-0,881
872,373	1	-0,282
882,315	-15	-3,183
892,256	-8	-2,824
902,186	3	0
912,127	-1,5	-1,18
922,068	-15	-3,496
932,016	-3	-1,795
941,951	3	-0,022
951,893	-6	-2,245
961,828	-13,5	-3,418
971,764	0	-0,81
981,705	1	-0,227
991,646	-12	-3,025
1001,576	-8	-2,88
1011,505	3	0
1021,435	-1	-1,094
1031,382	-14,5	-3,499
1041,312	-3,5	-2,066
1051,253	3	-0,006
1061,194	-3	-1,658
1071,142	-14,5	-3,491
1081,083	-1,5	-1,36
1091,025	2,5	-0,045
1100,966	-7,5	-2,436
1110,896	-13	-3,433
1120,843	-1,5	-1,164
1166,968	-1,5	-1,383
1176,892	2,5	-0,042
1186,821	-8,5	-2,568
1196,751	-9,5	-3,232
1206,692	1,5	-0,529
1216,622	0,5	-0,474
1226,557	-12,5	-3,028
1236,48	-8	-2,968
1246,416	2	-0,44
1256,351	0,5	-0,409
1266,287	-14	-3,232
1276,216	-7	-2,797
1286,152	3	-0,026
1296,081	-0,5	-1,004
1306,016	-14	-3,498
1315,952	-3	-1,954
1325,887	3	-0,007
1335,811	-3	-1,807
1345,752	-13,5	-3,477
1355,694	-1	-1,366
1365,635	2	-0,05
1375,552	-9,5	-2,723
1385,494	-9	-3,121
1395,423	2,5	-0,322
1405,365	0	-0,667
1415,294	-13,5	-3,5
1425,23	-4	-2,262
1435,165	3	-0,005
1445,1	-4,5	-2,03
1455,054	-13,5	-3,471
1464,983	-1	-1,052
1474,919	2	-0,092
1521,038	0,5	-0,42
1530,986	-13,5	-3,31
1540,927	-5	-2,532
1550,856	3	-0,001
1560,798	-2,5	-1,473
1570,739	-14	-3,493
1580,681	-1,5	-1,366
1590,622	2,5	-0,052
1600,564	-10,5	-2,781
1610,493	-7	-2,872
1620,422	3	-0,001
1630,352	-2	-1,612
1640,281	-13,5	-3,492
1650,205	-1	-1,352
1660,14	2	-0,091
1670,07	-12	-3,071
1680,005	-6	-2,73
1689,935	3	-0,002
1699,858	-3,5	-1,785
1709,787	-13	-3,466
1719,711	-0,5	-0,871
1729,652	1	-0,271
1739,588	-13,5	-3,39
1749,523	-5	-2,5
1759,459	3	-0,002
1769,394	-2,5	-1,628
1779,311	-12,5	-3,46
1789,241	-0,5	-1,073
1799,182	1,5	-0,134
1809,106	-12	-3,054
1819,035	-5,5	-2,622
1828,965	3	-0,001
1838,888	-1,5	-1,324
1848,829	-13	-3,497
1858,759	-2,5	-1,902
1868,7	3	-0,006
1878,63	-3	-1,924
1924,713	-12	-3,079
1934,643	-5,5	-2,751
1944,584	3	-0,001
1954,513	-2	-1,625
1964,431	-12,5	-3,479
1974,372	-0,5	-1,034
1984,302	1	-0,308
1994,237	-13	-3,276
2004,161	-4,5	-2,51
2014,096	3	-0,001
2024,025	-1,5	-1,45
2033,955	-12,5	-3,49
2043,878	-1	-1,329
2053,814	2	-0,083
2063,743	-6,5	-2,499
2073,667	-9	-3,296
2083,59	2,5	-0,403
2093,507	-0,5	-1,058
2103,437	-12,5	-3,498
2113,366	-2	-1,815
2123,284	2,5	-0,054
2133,207	-9	-2,776
2143,131	-6,5	-3,046
2153,066	3	-0,103
2163,001	-0,5	-1,221
2172,931	-12	-3,492
2182,86	-0,5	-1,206
2192,784	1,5	-0,226
2202,713	-12	-3,364
2212,643	-4	-2,365
2222,56	3	-0,008
2232,484	-4,5	-2,189
2242,413	-9	-3,337
2252,354	3	-0,279
2262,284	-0,5	-1,168
2272,207	-11,5	-3,494
2282,125	-0,5	-1,183
2292,072	1	-0,247
2301,996	-12	-3,494
2311,919	-2,5	-2,005
2321,849	3	-0,012
2331,772	-6	-2,606
2341,701	-5,5	-2,787
2351,637	3	-0,001
2361,56	-0,5	-1,214
2371,49	-11,5	-3,498
2381,419	-3	-2,184
2391,348	3	-0,002
2401,266	-1	-1,456
2411,195	-11,5	-3,495
2421,125	-1,5	-1,538
2431,036	2	-0,093
2440,96	-10	-3,089
2450,895	-3	-2,181
2460,812	2,5	-0,046
2470,748	-9,5	-2,972
2480,671	-5	-2,822
2490,601	3	-0,001
2500,524	-1,5	-1,769
2510,448	-8	-3,307
2520,377	2,5	-0,319
2530,301	0	-1,009
2540,224	-11,5	-3,498
2550,147	-1,5	-1,68
2560,077	2,5	-0,052
2570	-10	-2,984
2579,93	-3,5	-2,436
2589,853	3	-0,011
2599,777	-7,5	-2,718
2609,706	-7	-3,214
2619,629	2,5	-0,376
2629,565	0	-0,782
2639,482	-11	-3,498
2649,4	-2	-2,098
2659,329	3	-0,029
2669,253	-9	-2,934
2679,188	-4	-2,618
2689,111	3	-0,023
2699,035	-9	-2,9
2708,958	-3	-2,383
2718,882	3	-0,016
2728,799	-3	-2,117
2738,717	-9,5	-3,424
2748,634	2,5	-0,443
2758,563	0	-1,191
2768,493	-10,5	-3,498
2778,422	-1,5	-1,985
2788,334	3	-0,009
2798,251	-4	-2,321
2808,175	-6,5	-3,18
2818,104	3	-0,136
2828,021	0	-1,136
2837,939	-10,5	-3,495
2847,868	-0,5	-1,4
2857,798	2	-0,108
2867,721	-8,5	-3,068
2877,651	-3,5	-2,645
2887,568	3	-0,002
2897,485	-1,5	-1,902
2907,409	-9	-3,469
2917,314	0	-0,821
2927,238	1,5	-0,382
2937,161	-8,5	-3,433
2947,079	-1,5	-2,024
2956,996	3	-0,014
2966,914	-2,5	-2,337
2976,837	-5,5	-3,354
2986,754	2,5	-0,355
2996,678	0,5	-0,801
3042,737	-1	-2,021
3052,661	-7	-3,449
3062,59	0	-1,082
3072,52	2	-0,1
3082,443	-4,5	-2,78
3092,36	-3,5	-3,058
3102,29	3	-0,148
3112,213	0	-0,951
3122,137	-7,5	-3,498
3132,06	-1,5	-2,09
3141,984	2,5	-0,028
3151,907	-3	-2,578
3161,178	3	-0,001