File: Cycling_tests/_40perc/_2gap/entrada/_4.txt
Time (s)	Load (N)	Displacement (mm)
0	0	-0,034
10,816	-5	-1,261
21,406	-6,5	-1,68
32,019	-6	-1,664
42,638	-3	-1,09
53,228	1,5	-0,272
63,829	2	-0,162
74,437	0	-0,585
85,068	-5	-1,475
95,705	-9	-2,226
106,343	-11	-2,684
117,01	-17,5	-3,374
127,666	-19,5	-3,489
138,303	-19,5	-3,499
148,958	-19,5	-3,252
159,584	-16,5	-2,934
170,221	-11	-2,217
180,871	-5	-1,498
191,556	-0,5	-0,59
202,223	2	-0,046
212,855	2,5	-0,012
223,504	3	-0,001
234,159	0	-0,697
244,803	-4	-1,543
255,464	-7	-2,181
266,126	-11,5	-2,91
276,751	-15,5	-3,361
287,4	-18,5	-3,486
298,086	-18,5	-3,498
308,759	-17	-3,045
319,415	-10,5	-2,365
330,07	-5,5	-1,581
340,737	-2	-0,979
351,399	1	-0,18
362,06	3	-0,028
372,674	3	-0,007
383,323	3	-0,001
393,961	2,5	-0,195
404,58	0	-0,815
415,229	-3,5	-1,541
425,86	-4,5	-1,934
436,492	-7,5	-2,451
447,141	-12,5	-3,22
457,779	-16,5	-3,452
468,416	-17,5	-3,488
479,059	-17,5	-3,499
489,691	-17,5	-3,5
500,328	-13	-2,772
510,96	-11	-2,494
521,585	-6,5	-1,96
532,216	-4,5	-1,603
542,848	-1,5	-0,981
553,473	-0,5	-0,675
564,099	0,5	-0,359
574,718	2	-0,078
585,337	2,5	-0,021
595,963	2,5	-0,008
606,588	3	-0,003
617,208	3	-0,001
627,827	2,5	-0,001
638,446	3	-0,001
649,054	3	-0,001
659,667	3	-0,001
670,298	3	-0,002
680,924	3	-0,002
691,561	3	-0,003
702,193	3	-0,003
712,806	2,5	-0,002
723,425	3	-0,001
734,045	3	-0,001
744,67	3	-0,001
755,29	3	0
765,915	2	-0,35
776,54	0	-0,672
787,16	-1	-1,023
797,779	-3	-1,666
808,399	-4	-1,942
819,03	-7	-2,56
829,637	-9,5	-3,03
840,251	-15	-3,431
850,876	-16	-3,49
861,496	-16	-3,499
872,109	-16	-3,499
882,722	-16	-3,5
893,342	-16	-3,482
903,943	-16	-3,492
914,545	-15,5	-3,5
925,164	-16	-3,295
935,795	-15	-3,077
946,409	-13,5	-2,899
957,034	-12	-2,802
967,654	-9,5	-2,563
978,267	-12,5	-2,807
988,88	-10	-2,592
999,5	-8	-2,354
1010,107	-7,5	-2,192
1020,726	-6	-2,08
1031,34	-5	-1,829
1041,953	-3	-1,488
1052,573	-2,5	-1,394
1063,192	-1,5	-1,103
1073,793	0	-0,746
1084,407	0	-0,559
1095,02	1,5	-0,147
1105,622	2	-0,065
1116,229	3	-0,034
1126,836	3	-0,016
1137,45	3	-0,01
1148,057	3	-0,006
1158,671	3	-0,003
1169,29	3	-0,002
1179,903	3	-0,001
1190,517	3	-0,001
1201,13	3	-0,001
1211,738	3	-0,002
1222,345	3	-0,004
1232,952	3	-0,008
1243,566	3	-0,009
1254,173	3	-0,021
1264,787	3	-0,032
1275,388	2,5	-0,022
1285,995	3	-0,006
1296,609	3	-0,001
1307,222	3	0
1317,829	3	-0,214
1328,437	3	-0,227
1339,044	3	-0,285
1349,652	2,5	-0,445
1360,253	1,5	-0,562
1370,866	0	-0,817
1381,462	-0,5	-0,926
1392,075	-1,5	-1,166
1402,677	-2	-1,416
1413,278	-3	-1,713
1423,885	-4	-1,987
1434,487	-5,5	-2,342
1445,094	-5,5	-2,34
1455,708	-5	-2,267
1466,315	-6	-2,51
1476,922	-8	-2,795
1487,536	-11,5	-3,316
1498,131	-13,5	-3,412
1508,733	-13	-3,41
1519,34	-15	-3,48
1529,947	-13,5	-3,424
1540,549	-9,5	-3,062
1551,156	-7	-2,625
1561,764	-5,5	-2,41
1572,365	-6	-2,521
1583,056	-6	-2,465
1593,664	-3,5	-2,006
1604,265	-3	-1,792
1614,867	-4	-2,006
1625,468	-4,5	-2,238
1636,063	-4	-2,076
1646,671	-2	-1,515
1657,272	0	-0,748
1667,873	3	-0,036
1678,475	3	-0,002
1689,07	3	-0,002
1699,678	3	-0,002
1710,279	3	-0,001
1720,88	3	-0,001
1731,482	3	-0,005
1742,089	3	-0,005
1752,691	3	-0,006
1763,292	3	-0,009
1773,893	3	-0,004
1784,495	3	-0,004
1795,102	3	-0,002
1805,692	3	-0,002
1816,293	3	-0,003
1826,894	3	-0,003
1837,502	3	-0,002
1848,103	3	-0,001
1858,705	3	-0,036
1869,312	3	0
1879,913	3	-0,001
1890,515	3	-0,002
1901,116	3	-0,004
1911,712	3	-0,01
1922,319	2,5	-0,026
1932,926	3	-0,01
1943,528	3	-0,005
1954,129	3	-0,008
1964,737	2,5	-0,024
1975,332	2,5	-0,022
1985,933	3	-0,018
1996,529	3	-0,006
2007,136	3	-0,001
2017,731	2,5	-0,027
2028,327	1,5	-0,456
2038,928	-1	-0,94
2049,536	-1,5	-1,107
2060,131	-1,5	-1,342
2070,75	-2	-1,54
2081,346	-0,5	-0,886
2091,953	3	-0,018
2102,543	3	-0,003
2113,138	2,5	-0,023
2123,733	2	-0,078
2134,323	1,5	-0,117
2144,924	0	-0,522
2155,514	0	-0,79
2166,109	-1	-1,176
2176,704	-2	-1,525
2187,306	-3	-1,738
2197,901	-3	-1,683
2208,497	-3	-1,799
2219,086	-5	-2,12
2229,682	-5	-2,134
2240,289	-4,5	-2,084
2250,896	-4	-1,99
2261,486	-4	-1,966
2272,081	-4	-2,013
2282,688	-4,5	-2,009
2293,296	-4,5	-1,943
2303,897	-4,5	-1,968
2314,499	-4,5	-2,065
2325,088	-5,5	-2,307
2335,695	-9	-2,692
2346,291	-13	-3,17
2356,886	-13	-3,426
2367,494	-12,5	-3,498
2378,089	-12,5	-3,498
2388,69	-12	-3,496
2399,304	-12	-3,494
2409,899	-8,5	-3,328
2420,494	-4	-2,452
2431,096	-2	-1,727
2441,691	-1,5	-1,41
2452,287	-1,5	-1,348
2462,876	-0,5	-0,995
2473,477	-0,5	-1,122
2484,073	0	-0,933
2494,662	0	-0,745
2505,27	2	-0,486
2515,871	2	-0,475
2526,466	3	-0,163
2537,074	3	-0,001
2547,669	3	-0,002
2558,271	3	-0,01
2568,872	2,5	-0,053
2579,473	1	-0,319
2590,069	1	-0,31
2600,67	0,5	-0,626
2611,272	0	-0,823
2621,861	0	-1,015
2632,456	0	-0,955
2643,058	0	-0,78
2653,647	0	-0,766
2664,249	0,5	-0,479
2674,85	1	-0,39
2685,439	1,5	-0,138
2696,041	2	-0,082
2706,642	2,5	-0,036
2717,238	3	-0,026
2727,839	2	-0,056
2738,434	2,5	-0,041
2749,03	2,5	-0,054
2759,631	2,5	-0,069
2770,22	2	-0,085
2780,816	1,5	-0,192
2791,417	0,5	-0,448
2802,013	0	-0,77
2812,614	-0,5	-1,516
2823,215	-1	-1,648
2833,805	-1,5	-1,917
2844,406	-1,5	-2,013
2855,002	-3	-2,297
2865,603	-4,5	-2,682
2876,204	-5,5	-2,848
2886,806	-7	-2,985
2897,401	-8	-3,118
2907,991	-8,5	-3,5
2918,586	-8,5	-3,498
2929,187	-8,5	-3,495
2939,789	-8,5	-3,484
2950,39	-7,5	-3,449
2960,992	-6,5	-3,403
2971,587	-4,5	-3,099
2982,188	-3,5	-2,832
2992,778	-2,5	-2,464
3003,373	-2	-2,098
3013,969	-1,5	-1,716
3024,57	-1	-1,307
3035,171	0	-0,982
3045,767	0	-0,804
3056,356	3	-0,257
3066,958	3	-0,001
3077,553	3	-0,004
3088,148	3	-0,014
3098,738	1,5	-0,088
3109,333	0,5	-0,404
3119,935	0	-0,857
3130,524	-0,5	-1,459
3141,119	-1,5	-2,096
3151,715	-3,5	-2,626
3162,31	-7,5	-3,158
3172,911	-8	-3,5
3180,369	3	-0,001