File: ensaios_Ciclicos/_40perc/_2gap/entrada/_2.txt
Time (s)	Load (N)	Displacement (mm)
0	0	-0,034
10,517	1,5	-0,001
20,849	1,5	-0,028
31,205	-1,5	-0,7
41,559	-9	-1,958
51,909	-20	-3,171
62,294	-19,5	-3,496
72,661	-15	-3,21
83,024	-7,5	-2,276
93,415	-3,5	-1,397
103,776	2	-0,284
114,179	2	-0,005
124,558	1	-0,125
134,938	-2	-0,96
145,329	-6,5	-1,804
155,715	-13,5	-2,645
166,076	-18	-3,5
176,467	-18	-3,493
186,889	-17	-3,46
197,305	-11	-2,916
207,719	-4,5	-1,92
218,105	0	-0,771
228,514	2,5	-0,023
238,924	2,5	-0,003
249,339	2,5	-0,033
259,773	1	-0,134
270,164	-0,5	-0,779
280,573	-4	-1,49
290,971	-8,5	-2,206
301,386	-13,5	-2,768
311,79	-16,5	-3,498
322,175	-16,5	-3,482
332,572	-13,5	-3,364
342,964	-8,5	-2,666
353,379	-5	-2,139
363,807	-3	-1,551
374,222	0,5	-0,636
384,625	2,5	-0,002
395,041	2,5	-0,024
405,462	1	-0,176
415,854	-2,5	-1,276
426,245	-9,5	-2,304
436,648	-15	-3,148
447,058	-16	-3,499
457,455	-16	-3,487
467,847	-13,5	-3,323
478,25	-6	-2,335
488,641	-2,5	-1,567
499,033	0,5	-0,574
509,418	3	-0,002
519,816	2,5	-0,028
530,219	0	-0,574
540,599	-4,5	-1,704
550,996	-11	-2,668
561,399	-15,5	-3,5
571,785	-15	-3,491
582,176	-11,5	-3,289
592,55	-4,5	-2,133
602,929	-1	-1,124
613,314	2,5	-0,286
623,7	3	-0,003
634,091	3	-0,023
644,483	0	-0,743
654,856	-2,5	-1,484
665,235	-9	-2,52
675,609	-15	-3,496
685,994	-15	-3,494
696,386	-14	-3,431
706,777	-7,5	-2,762
717,162	-3,5	-1,968
727,548	-1	-1,027
737,945	2,5	-0,15
748,325	3	-0,008
758,71	1	-0,245
769,095	-2	-1,243
779,487	-5,5	-2,064
789,866	-12,5	-2,979
800,258	-15	-3,499
810,655	-15	-3,489
821,04	-12	-3,374
831,438	-6,5	-2,619
841,811	-2	-1,581
852,197	0,5	-0,643
862,582	2,5	-0,001
872,956	2,5	-0,054
883,329	-1	-1,073
893,708	-5,5	-2,082
904,088	-13	-2,996
914,461	-15	-3,496
924,841	-12,5	-3,372
935,208	-4,5	-2,225
945,587	-1	-1,024
955,955	2,5	-0,002
966,334	1,5	-0,16
976,708	-1,5	-1,214
987,063	-10	-2,716
997,436	-14,5	-3,496
1007,81	-12,5	-3,398
1018,183	-3,5	-2,071
1028,557	-0,5	-0,939
1038,942	3	-0,001
1049,321	3	-0,023
1059,707	0,5	-0,335
1070,098	-3	-1,566
1080,466	-10	-2,615
1090,839	-14,5	-3,5
1101,2	-14,5	-3,493
1111,574	-12,5	-3,414
1121,941	-5,5	-2,614
1132,321	-2	-1,536
1142,694	2	-0,421
1153,061	2,5	-0,004
1163,453	1,5	-0,078
1173,82	-1	-1,074
1184,176	-6	-2,165
1194,549	-9,5	-2,652
1204,911	-14	-3,466
1215,284	-14	-3,495
1225,657	-13	-3,419
1236,025	-4,5	-2,322
1246,398	-1,5	-1,24
1256,754	2,5	0
1267,121	3	-0,016
1277,494	1	-0,29
1287,85	-1	-1,105
1298,217	-4	-1,946
1308,573	-12,5	-3,026
1318,94	-14	-3,498
1329,313	-13,5	-3,473
1339,675	-7,5	-2,805
1350,042	-2,5	-1,694
1360,398	0	-0,755
1370,765	2,5	-0,001
1381,133	2,5	-0,035
1391,5	0	-0,84
1401,873	-6,5	-2,341
1412,235	-14	-3,498
1422,614	-7,5	-2,921
1432,976	-2,5	-1,71
1443,355	2	-0,385
1453,716	3	-0,008
1464,078	0	-0,443
1474,433	-3,5	-1,844
1484,801	-11,5	-2,994
1495,186	-14	-3,497
1505,541	-10,5	-3,292
1515,897	-3	-1,948
1526,264	0	-0,671
1536,62	3	-0,005
1546,987	0,5	-0,334
1557,348	-2,5	-1,481
1567,71	-9,5	-2,697
1578,077	-13,5	-3,499
1588,451	-13,5	-3,478
1598,818	-7	-2,857
1609,185	-2,5	-1,82
1619,559	0,5	-0,668
1629,926	3	-0,003
1640,294	1,5	-0,114
1650,661	-1	-1,165
1661,01	-8,5	-2,649
1671,384	-13,5	-3,498
1681,739	-12	-3,422
1692,101	-4,5	-2,396
1702,468	-0,5	-0,948
1712,824	3	-0,002
1723,197	1,5	-0,15
1733,558	-2	-1,488
1780,068	-2,5	-1,709
1790,435	-9,5	-2,714
1800,796	-13,5	-3,499
1811,17	-13	-3,475
1821,525	-6,5	-2,83
1831,875	-1,5	-1,503
1842,248	3	-0,256
1852,61	3	-0,008
1862,971	0,5	-0,354
1873,332	-2	-1,515
1883,706	-9,5	-2,758
1894,079	-13,5	-3,499
1904,447	-13,5	-3,487
1914,808	-7,5	-3,022
1925,163	-2,5	-1,823
1935,537	-0,5	-0,98
1945,898	3	-0,027
1956,254	3	-0,011
1966,627	1,5	-0,221
1976,988	-2	-1,535
1987,356	-7	-2,524
1997,717	-13	-3,499
2008,073	-13	-3,478
2018,428	-6	-2,68
2028,795	-1,5	-1,361
2039,157	3	0
2049,512	2,5	-0,068
2059,886	-0,5	-1,129
2070,253	-6	-2,225
2080,62	-13,5	-3,476
2090,982	-12,5	-3,478
2101,337	-5	-2,641
2111,699	-1,5	-1,578
2122,06	1	-0,671
2132,428	3	-0,001
2142,789	2,5	-0,031
2153,144	-0,5	-0,993
2163,5	-5	-2,277
2173,861	-13	-3,499
2184,229	-12,5	-3,481
2194,59	-6	-2,89
2204,945	-1,5	-1,404
2215,307	3	-0,205
2225,674	3	-0,011
2236,036	1,5	-0,235
2246,403	-1	-1,282
2256,764	-6	-2,307
2267,132	-13	-3,5
2277,487	-12,5	-3,49
2287,843	-8,5	-3,217
2298,198	-3	-2,185
2308,553	-0,5	-0,853
2318,897	3	-0,004
2329,258	1	-0,186
2339,614	-2	-1,583
2349,969	-12,5	-3,28
2360,337	-12	-3,481
2370,692	-4,5	-2,47
2381,065	-1	-1,229
2391,427	3	-0,019
2401,788	2,5	-0,062
2412,15	-2	-1,647
2422,517	-11,5	-3,106
2432,878	-12	-3,493
2443,24	-4,5	-2,573
2453,595	1,5	-0,518
2463,951	2,5	-0,029
2474,306	0	-0,908
2484,667	-9	-2,831
2495,035	-12	-3,497
2505,39	-6,5	-3,006
2515,746	-1	-1,27
2526,113	3	-0,001
2536,474	2,5	-0,04
2546,836	0	-0,858
2557,209	-5,5	-2,434
2567,571	-12	-3,499
2577,932	-10,5	-3,444
2588,305	-3	-2,332
2598,667	0	-0,946
2609,028	2,5	-0,001
2619,39	2,5	-0,047
2629,757	0	-0,677
2640,124	-3,5	-1,97
2650,486	-12	-3,281
2660,853	-12	-3,48
2671,209	-5	-2,72
2681,57	-0,5	-0,992
2691,932	3	-0,001
2702,281	2	-0,069
2712,63	-1	-1,434
2722,986	-9,5	-2,952
2733,341	-10,5	-3,446
2743,691	-1,5	-1,599
2754,046	2,5	-0,006
2764,407	-0,5	-1,099
2774,763	-9	-2,921
2785,112	-11,5	-3,495
2795,474	-4	-2,635
2805,829	0	-0,952
2816,19	3	-0,008
2826,546	-0,5	-1,158
2836,901	-11	-3,5
2847,269	-9	-3,364
2857,624	-1	-1,456
2867,985	3	-0,001
2878,347	2,5	-0,063
2888,708	0	-0,946
2899,064	-5	-2,405
2909,419	-11	-3,499
2919,781	-10	-3,427
2930,13	-3	-2,295
2940,491	-0,5	-1,148
2950,847	2,5	-0,341
2961,208	3	-0,004
2971,564	1	-0,248
2981,919	-2,5	-1,896
2992,28	-10	-3,141
3002,636	-10,5	-3,492
3012,997	-4	-2,588
3023,365	0	-0,8
3033,72	3	-0,014
3044,099	1	-0,499
3054,455	-2,5	-2,119
3064,81	-9,5	-3,499
3075,16	-7	-3,379
3121,669	-1	-1,834
3132,03	3	-0,237
3142,392	2,5	-0,035
3152,747	0	-1,204
3163,109	-3,5	-2,496
3173,458	-8	-3,475
3182,901	3	-0,001