File: ensaios_Ciclicos/_40perc/_2gap/entrada/_3.txt
Time (s)	Load (N)	Displacement (mm)
36,309	-15	-3,067
42,009	1,5	-0,037
47,702	-5,5	-1,259
53,42	-22	-3,497
59,138	-7,5	-1,865
64,861	1,5	-0,019
70,591	-15	-2,448
76,315	-16,5	-3,269
82,05	1,5	-0,339
87,786	-3	-0,904
93,51	-21	-3,498
99,227	-6,5	-1,948
104,963	2	-0,007
110,693	-11,5	-2,113
116,422	-19	-3,436
122,158	-0,5	-0,777
127,888	-0,5	-0,368
133,605	-20	-3,499
139,353	-8	-2,264
217,769	-19,5	-3,499
223,516	-6,5	-2,114
229,252	2,5	-0,004
235	-8	-1,894
240,735	-18,5	-3,474
246,471	-1,5	-0,98
252,201	0	-0,236
257,942	-19	-3,284
263,666	-8,5	-2,444
269,402	2,5	-0,002
275,143	-7	-1,893
280,879	-18	-3,463
286,627	-1,5	-0,903
401,298	-12,5	-2,655
407,034	-13,5	-3,166
412,775	2	-0,267
418,505	-1,5	-0,93
424,241	-18	-3,498
429,988	-4	-1,85
435,718	2,5	-0,01
441,442	-8,5	-2,192
447,184	-15,5	-3,421
452,913	0,5	-0,538
458,649	-0,5	-0,625
464,378	-18	-3,497
470,096	-7,5	-2,372
475,826	2,5	-0,003
481,543	-5,5	-1,724
487,273	-17,5	-3,481
493,015	-2,5	-1,233
498,745	1,5	-0,073
504,474	-12,5	-2,683
691,448	-17	-3,5
697,177	-6	-2,252
702,895	3	-0,005
708,619	-5	-1,79
714,342	-16,5	-3,48
720,072	-2	-1,222
725,802	2	-0,068
731,525	-12	-2,712
737,255	-10,5	-3,009
742,973	2,5	-0,053
748,696	-2	-0,99
754,42	-16,5	-3,498
760,138	-4,5	-1,94
765,861	3	-0,005
771,585	-5	-1,801
777,304	-16	-3,481
783,02	-1,5	-1,111
788,75	1,5	-0,163
794,48	-16,5	-3,244
981,273	-14,5	-3,44
986,997	-0,5	-0,747
992,72	0,5	-0,328
998,432	-16	-3,408
1004,162	-6,5	-2,556
1009,879	2,5	-0,003
1015,603	-4	-1,689
1021,321	-15,5	-3,469
1027,038	-1	-0,871
1032,768	0,5	-0,285
1038,486	-16	-3,246
1044,197	-6,5	-2,437
1049,933	3	-0,003
1055,651	-6	-1,96
1061,386	-15	-3,455
1067,104	1	-0,6
1072,822	0	-0,643
1078,533	-15,5	-3,499
1084,257	-4	-1,955
1089,981	2,5	-0,023
1095,686	-13,5	-2,887
1101,41	-7	-2,62
1107,122	2,5	-0,003
1112,845	-6,5	-2,102
1118,569	-14,5	-3,416
1124,293	1	-0,56
1130,004	-1	-0,78
1135,728	-15,5	-3,498
1141,452	-3	-1,651
1147,164	2	-0,076
1152,887	-14,5	-3,079
1158,623	-6,5	-2,605
1164,334	2,5	-0,004
1170,052	-6	-2,04
1175,776	-14	-3,423
1181,5	1	-0,565
1187,229	0	-0,57
1192,947	-15	-3,466
1198,671	-6	-2,42
1204,382	3	-0,002
1210,088	-4	-1,705
1215,812	-15	-3,488
1221,541	-2	-1,396
1227,259	1,5	-0,069
1269,167	-1	-1,084
1274,884	-15,5	-3,497
1280,608	-3,5	-1,821
1286,326	3	-0,013
1292,049	-6,5	-2,174
1297,773	-14,5	-3,443
1303,491	0,5	-0,677
1345,392	3	-0,164
1351,098	-1	-1,004
1356,815	-15	-3,498
1362,533	-4,5	-2,093
1368,257	3	-0,004
1373,98	-3,5	-1,701
1379,698	-15	-3,486
1385,41	-2,5	-1,467
1391,121	2,5	-0,031
1396,833	-7,5	-2,384
1402,551	-14	-3,407
1408,263	0	-0,741
1413,986	0	-0,322
1419,704	-14,5	-3,12
1425,422	-7,5	-2,738
1431,145	3	-0,001
1436,863	-1	-1,028
1442,575	-15	-3,498
1448,286	-4	-2,021
1454,004	3	-0,005
1459,716	-3,5	-1,705
1465,433	-15	-3,484
1471,151	-1,5	-1,222
1476,863	2	-0,07
1482,574	-9	-2,602
1488,292	-10,5	-3,199
1494,004	2	-0,348
1499,715	0	-0,78
1505,433	-15	-3,499
1511,151	-4,5	-2,175
1516,868	2,5	-0,004
1522,58	-4	-1,695
1528,298	-15	-3,488
1534,015	-2,5	-1,418
1539,739	2,5	-0,039
1545,451	-8,5	-2,48
1551,174	-11	-3,329
1556,892	1,5	-0,51
1562,61	0	-0,45
1568,321	-15	-3,244
1574,033	-7	-2,795
1579,757	3	-0,005
1585,474	-1	-0,988
1591,192	-15	-3,498
1596,904	-3	-1,782
1602,616	2,5	-0,024
1608,321	-8,5	-2,513
1614,039	-11,5	-3,32
1619,75	2,5	-0,248
1625,474	-1,5	-1,057
1631,192	-15	-3,496
1636,909	-2,5	-1,626
1642,615	1,5	-0,087
1648,333	-14	-2,996
1654,044	-6	-2,625
1659,768	2,5	-0,001
1665,48	-3	-1,597
1671,198	-15	-3,489
1676,927	-2,5	-1,502
1682,639	2	-0,021
1688,357	-5,5	-2,132
1694,068	-13,5	-3,442
1699,78	-1	-0,952
1705,486	0,5	-0,211
1711,203	-13	-2,968
1716,933	-8,5	-2,983
1722,645	2,5	-0,119
1728,356	-1	-1,026
1734,062	-15	-3,496
1739,768	-2,5	-1,652
1745,485	2,5	-0,02
1751,197	-7,5	-2,375
1756,915	-13	-3,403
1762,626	0,5	-0,655
1768,344	0,5	-0,321
1774,062	-13,5	-3,031
1779,773	-7	-2,708
1785,491	3	0
1791,215	-1	-1,015
1796,926	-15	-3,498
1802,638	-3,5	-2,098
1808,368	2,5	-0,003
1814,085	-2	-1,432
1819,809	-14,5	-3,493
1825,515	-2	-1,571
1831,226	3	-0,018
1836,956	-6	-2,259
1842,662	-12	-3,384
1848,379	0	-0,627
1854,103	0,5	-0,364
1859,815	-15	-3,227
1865,538	-6	-2,626
1871,25	2,5	-0,001
1876,956	-2,5	-1,483
1882,673	-15	-3,49
1888,391	-2	-1,508
1894,097	2,5	-0,039
1899,823	-7	-2,371
1905,532	-12	-3,377
1911,238	0,5	-0,668
1916,95	0	-0,334
1922,661	-14	-3,191
1928,361	-6	-2,527
1934,079	3	-0,001
1939,796	-2	-1,29
1945,52	-15	-3,496
1951,238	-3	-1,688
1993,133	-3,5	-2,029
1998,839	3	-0,007
2004,556	-4,5	-1,88
2010,268	-14	-3,47
2015,986	-0,5	-1,027
2021,709	1,5	-0,152
2027,427	-12	-2,925
2105,507	-1	-1,164
2111,212	-14,5	-3,495
2116,948	-2,5	-1,702
2122,66	3	-0,014
2128,371	-6,5	-2,318
2134,101	-12,5	-3,427
2139,807	0	-0,779
2145,524	1	-0,213
2151,254	-12	-2,936
2156,966	-7,5	-2,892
2162,677	3	0
2168,389	-1,5	-1,165
2174,107	-14,5	-3,497
2179,819	-2,5	-1,79
2185,536	3	-0,013
2191,242	-6	-2,268
2196,959	-11,5	-3,4
2202,671	1	-0,571
2208,395	0	-0,444
2214,101	-14	-3,264
2219,818	-5,5	-2,598
2225,542	3	-0,001
2231,254	-2	-1,4
2236,971	-14,5	-3,494
2242,695	-2	-1,6
2248,413	2,5	-0,026
2254,124	-8	-2,572
2259,842	-7,5	-2,994
2265,548	2,5	0
2271,259	-2,5	-1,386
2276,971	-14,5	-3,492
2282,683	-1,5	-1,369
2288,388	2	-0,063
2294,112	-11	-2,845
2299,818	-6,5	-2,778
2305,529	3	-0,003
2311,235	-4	-2,013
2316,959	-12	-3,406
2322,67	3	-0,119
2328,388	-2	-1,359
2334,106	-13,5	-3,48
2339,817	0	-0,635
2345,523	-0,5	-0,886
2351,241	-13,5	-3,496
2501,556	-12,5	-3,495
2507,268	-2	-1,546
2512,973	2	-0,074
2518,679	-9,5	-2,878
2524,391	-5,5	-2,735
2530,102	3	-0,003
2571,95	-1,5	-1,272
2577,656	-12	-3,487
2583,368	0	-0,842
2589,073	0	-0,635
2594,785	-12,5	-3,498
2600,496	-1	-1,226
2606,202	0	-0,703
2720,31	-5	-2,773
2726,027	3	-0,002
2731,739	-4,5	-2,207
2737,445	-6,5	-3,046
2743,15	3	-0,002
2748,856	-4	-2,174
3151,997	-7,5	-3,481
3157,709	-0,5	-1,198
3159,539	2,5	-0,001