File: ensaios_Ciclicos/_50perc/_3gap/entrada/_1.txt
Time (s)	Load (N)	Displacement (mm)
0	0	-0,026
10,659	1,5	-0,001
21,296	1,5	-0,002
31,928	1,5	-0,002
42,565	2	-0,007
53,202	2	-0,022
63,846	1,5	-0,104
74,488	1	-0,256
85,12	0,5	-0,44
95,763	-0,5	-0,885
106,4	-1	-1,051
117,038	-1	-0,924
127,681	-0,5	-0,832
138,319	0,5	-0,439
148,956	0,5	-0,51
159,587	0,5	-0,387
170,231	0	-0,369
180,868	0,5	-0,397
191,517	1	-0,306
202,161	0	-0,51
212,804	0	-0,578
223,448	0	-0,569
234,085	0	-0,668
244,728	-0,5	-0,924
255,366	-1	-1,054
266,009	-1,5	-1,259
276,646	-1,5	-1,362
287,29	-2,5	-1,535
297,945	-2,5	-1,433
308,601	-3	-1,596
319,25	-3	-1,617
329,893	-3,5	-1,769
340,537	-5	-1,979
351,192	-5,5	-2,155
361,83	-7,5	-2,396
372,485	-9	-2,622
383,158	-9,5	-2,57
393,808	-9	-2,618
404,463	-12	-2,992
415,101	-13,5	-3,331
425,732	-13,5	-3,499
436,393	-13,5	-3,499
447,067	-13,5	-3,492
457,716	-13,5	-3,482
468,366	-12,5	-3,442
479,021	-11	-3,355
489,676	-10	-3,264
500,332	-7,5	-2,932
510,975	-6	-2,6
521,636	-4,5	-2,23
532,274	-3	-1,776
542,917	-2,5	-1,546
553,585	-1,5	-1,397
564,252	-2	-1,386
574,895	-1	-1,011
585,545	1	-0,601
596,182	2,5	-0,328
606,82	2,5	-0,146
617,487	2,5	-0,168
628,148	2,5	0
638,804	3	-0,001
649,447	2,5	-0,001
660,103	2,5	-0,004
670,752	2,5	-0,018
681,407	2,5	-0,035
692,057	2	-0,108
702,712	1,5	-0,102
713,362	1	-0,37
724,023	1	-0,373
734,672	0,5	-0,495
745,352	0	-0,633
755,995	0	-0,885
766,645	-0,5	-1,06
777,288	-1	-1,191
787,932	-1,5	-1,326
798,575	-2	-1,526
809,23	-2,5	-1,661
819,903	-2,5	-1,71
830,565	-3	-1,757
841,232	-3,5	-1,895
851,882	-4,5	-2,059
862,543	-5,5	-2,206
873,222	-5	-2,193
883,896	-5,5	-2,287
894,581	-3,5	-1,979
905,261	-3	-1,796
915,946	-2,5	-1,685
926,625	-1,5	-1,476
937,293	-1,5	-1,444
947,96	-1,5	-1,384
958,622	-1	-1,336
969,283	-1	-1,259
979,95	-0,5	-1,015
990,606	-1	-1,193
1001,261	-0,5	-1,135
1011,922	-1	-1,345
1022,578	-1,5	-1,438
1033,245	-1	-1,348
1043,901	-1	-1,296
1054,568	-0,5	-1,104
1065,223	-0,5	-1,01
1075,891	0	-0,601
1086,546	1,5	-0,112
1097,196	2	-0,033
1107,857	2,5	-0,007
1118,518	2,5	-0,027
1129,186	0	-0,785
1139,835	-1,5	-1,27
1150,497	-2,5	-1,745
1161,158	-3	-2,049
1171,801	-4,5	-2,386
1182,451	-4,5	-2,54
1193,1	-6,5	-2,876
1203,768	-8	-3,279
1214,435	-11	-3,448
1225,072	-12	-3,482
1235,722	-12	-3,49
1246,401	-12	-3,499
1257,068	-12	-3,5
1267,724	-10,5	-2,969
1278,385	-8	-2,717
1289,053	-5	-2,275
1299,714	-5	-2,22
1310,375	-6	-2,394
1321,043	-5	-2,33
1331,704	-3,5	-1,962
1342,372	-2,5	-1,69
1353,051	-1	-1,333
1363,712	-0,5	-1,048
1374,386	0	-0,732
1385,053	0,5	-0,488
1395,715	1	-0,258
1406,37	1,5	-0,137
1417,037	1,5	-0,078
1427,699	1,5	-0,109
1438,36	1,5	-0,174
1449,016	1,5	-0,139
1459,665	2	-0,055
1470,326	2,5	-0,022
1480,994	3	-0,007
1491,661	2,5	-0,004
1502,322	2,5	-0,004
1512,984	2,5	-0,002
1523,633	2,5	-0,001
1534,283	2,5	-0,001
1544,962	2,5	-0,001
1555,629	2,5	0
1566,297	2,5	-0,336
1576,97	1	-0,549
1587,626	-0,5	-0,893
1598,305	-1	-1,261
1608,984	-0,5	-0,906
1619,664	-1,5	-1,35
1630,331	-2,5	-1,976
1640,999	-2,5	-2,03
1651,672	-2	-1,735
1662,351	-2	-1,678
1673,019	-2	-1,7
1683,704	-1,5	-1,396
1694,354	-1,5	-1,534
1705,033	-2,5	-1,823
1715,694	-2	-1,676
1726,362	-1,5	-1,56
1737,041	-1	-1,214
1747,708	0	-0,752
1758,382	0	-0,766
1769,055	-0,5	-0,993
1779,723	-1	-1,194
1790,378	-1,5	-1,539
1801,039	-2,5	-1,801
1811,689	-2,5	-1,966
1822,338	-2,5	-2
1832,988	-2	-1,929
1843,667	-2	-1,72
1854,334	-2	-1,729
1865,014	-1,5	-1,592
1875,675	-1,5	-1,579
1886,331	-1,5	-1,556
1896,992	-2	-1,622
1907,659	-2	-1,733
1918,321	-2	-1,858
1928,988	-2,5	-1,915
1939,656	-2,5	-2,058
1950,335	-3,5	-2,401
1960,99	-4	-2,485
1971,664	-5,5	-2,797
1982,325	-6	-2,905
1992,987	-6	-2,87
2003,666	-5	-2,717
2014,327	-6,5	-3,001
2024,989	-6,5	-3,034
2035,656	-7,5	-3,242
2046,329	-7,5	-3,232
2057,003	-7	-3,099
2067,676	-7,5	-3,14
2078,338	-8	-3,257
2088,999	-8,5	-3,269
2099,672	-10,5	-3,45
2110,34	-11	-3,476
2121,007	-10,5	-3,479
2131,675	-11	-3,488
2142,33	-11	-3,486
2153,009	-11	-3,493
2163,689	-10,5	-3,458
2174,356	-10,5	-3,476
2185,011	-10,5	-3,467
2195,685	-11	-3,483
2206,34	-11	-3,487
2217,008	-11	-3,491
2227,687	-11	-3,498
2238,36	-11	-3,499
2249,028	-11	-3,5
2259,689	-9,5	-2,998
2270,375	-5	-2,348
2281,042	-3	-1,965
2291,715	-1,5	-1,569
2302,389	-1,5	-1,519
2313,056	0	-0,911
2323,736	0,5	-0,252
2334,409	2,5	-0,023
2345,076	2,5	-0,006
2355,744	2,5	-0,001
2366,417	1,5	-0,394
2377,091	0,5	-0,727
2387,758	-0,5	-1,02
2398,419	-1	-1,16
2409,069	-1	-1,495
2419,754	-3	-2,07
2430,409	-4,5	-2,69
2441,071	-6	-3,016
2451,75	-9,5	-3,413
2462,406	-10,5	-3,475
2473,067	-11	-3,488
2483,728	-11	-3,493
2494,39	-11	-3,498
2505,063	-11	-3,499
2515,713	-10	-3,128
2526,368	-8	-2,853
2537,041	-4,5	-2,306
2547,703	-3,5	-2,054
2558,352	-2,5	-1,878
2569,014	-1,5	-1,626
2579,681	-0,5	-1,202
2590,336	0	-0,994
2600,986	0	-0,868
2611,641	0,5	-0,492
2622,291	1	-0,3
2632,946	1	-0,234
2643,619	1,5	-0,142
2654,275	1	-0,164
2664,942	1,5	-0,152
2675,609	2	-0,089
2686,265	2,5	-0,03
2696,92	2,5	-0,03
2707,588	3	-0,019
2718,255	3	-0,012
2728,904	2,5	-0,008
2739,56	3	-0,007
2750,221	2,5	-0,008
2760,871	2,5	-0,007
2771,544	2,5	-0,008
2782,199	2,5	-0,005
2792,861	2,5	-0,004
2803,534	2,5	-0,003
2814,201	2,5	-0,002
2824,857	2,5	-0,002
2835,518	2,5	-0,001
2846,174	3	-0,001
2856,829	2,5	-0,001
2867,472	2,5	-0,001
2878,146	2,5	-0,005
2888,807	2,5	-0,228
2899,463	1,5	-0,448
2910,136	1,5	-0,596
2920,803	-0,5	-0,946
2931,471	0	-0,829
2942,132	-0,5	-0,884
2952,8	-0,5	-0,995
2963,467	0	-0,89
2974,134	0	-0,926
2984,796	-1	-1,253
2995,463	-1	-1,45
3006,125	-1	-1,155
3016,804	0	-0,912
3027,471	1	-0,688
3038,127	0,5	-0,628
3048,788	0	-0,752
3059,456	0	-0,784
3070,129	0	-0,82
3080,784	0	-0,902
3091,434	-0,5	-1,014
3102,095	-0,5	-1,064
3112,756	-0,5	-0,932
3123,412	0	-0,92
3134,061	0	-0,831
3144,723	-0,5	-1,147
3155,384	-1,5	-1,622
3166,039	-1,5	-1,795
3176,719	-1,5	-1,93
3187,368	-2	-2,155
3193,29	2,5	-0,001