File: ensaios_Ciclicos/_50perc/_3gap/entrada/_3.txt
Time (s)	Load (N)	Displacement (mm)
0	0	-0,036
10,643	-1	-0,739
21,202	-3,5	-1,134
31,762	-5	-1,492
42,321	-6	-1,866
52,892	-8	-2,136
63,47	-9	-2,479
74,041	-12	-2,924
84,619	-15	-3,317
95,184	-16,5	-3,433
105,761	-15	-3,348
116,357	-15,5	-3,388
126,946	-13,5	-3,282
137,523	-16,5	-3,456
148,107	-17	-3,488
158,678	-17	-3,497
169,262	-17	-3,489
179,857	-14	-2,83
190,453	-9	-2,228
201,036	-5	-1,627
211,613	-2	-1,023
222,221	0	-0,224
232,792	1,5	-0,032
243,411	2	-0,007
254,019	2	-0,002
264,62	2	-0,003
275,222	2	-0,004
285,823	1,5	0
296,412	2	-0,294
307,038	-1	-1
317,67	-3	-1,549
328,289	-6	-2,314
338,89	-10,5	-3,117
349,509	-15,5	-3,482
360,123	-15,5	-3,487
370,73	-16	-3,496
381,326	-15,5	-3,499
391,927	-15,5	-3,242
402,516	-14	-3,013
413,112	-14	-3,038
423,725	-14	-2,93
434,326	-12,5	-2,797
444,916	-9,5	-2,485
455,523	-7	-2,137
466,125	-5,5	-1,855
476,726	-4	-1,558
487,315	-3	-1,368
497,923	-1,5	-0,999
508,524	-0,5	-0,686
519,138	0,5	-0,171
529,745	1,5	-0,048
540,346	2	-0,014
550,96	2	-0,004
561,579	2	0
572,181	2	-0,289
582,8	-1	-0,961
593,407	-1,5	-0,959
604,009	-1,5	-1,049
614,616	-2,5	-1,307
625,218	-2	-1,164
635,813	0	-0,659
646,426	-1	-0,958
657,016	-3	-1,472
667,635	-5,5	-2,242
678,249	-9	-2,946
688,85	-11,5	-3,309
699,445	-14,5	-3,472
710,065	-15	-3,498
720,666	-12,5	-2,948
731,273	-6,5	-2,168
741,869	-3,5	-1,486
752,488	-2	-1,11
763,096	-0,5	-0,675
773,703	0,5	-0,187
784,317	2	-0,026
794,924	2	-0,004
805,537	2	-0,001
816,151	1,5	-0,404
826,77	-0,5	-0,935
837,383	-1,5	-1,25
847,985	-3	-1,574
858,58	-3	-1,737
869,2	-4	-1,983
879,783	-5	-2,285
890,402	-5,5	-2,356
901,004	-7	-2,7
911,605	-10	-3,184
922,213	-11	-3,348
932,826	-12,5	-3,413
943,439	-13,5	-3,452
954,029	-14	-3,491
964,636	-14	-3,498
975,238	-14	-3,499
985,839	-14	-3,5
996,44	-14	-3,394
1007,054	-12	-3,027
1017,661	-8,5	-2,518
1028,263	-8	-2,434
1038,876	-5,5	-2,145
1049,495	-2,5	-1,45
1060,073	-2,5	-1,427
1070,674	-2	-1,219
1081,288	-1	-0,932
1091,889	0	-0,618
1102,496	0	-0,477
1113,098	0	-0,45
1123,693	1	-0,17
1134,288	1,5	-0,068
1144,896	1,5	-0,091
1155,479	1	-0,1
1166,081	0,5	-0,17
1176,676	0	-0,296
1187,283	1	-0,16
1197,867	0,5	-0,212
1208,474	0,5	-0,229
1219,064	1	-0,16
1229,671	1	-0,115
1240,266	0	-0,478
1250,868	-0,5	-0,934
1261,475	-2	-1,203
1272,083	-3	-1,664
1282,69	-3,5	-1,734
1293,297	-3,5	-1,773
1303,899	-3	-1,594
1314,494	-3	-1,472
1325,078	-3	-1,644
1335,673	-3	-1,644
1346,28	-5,5	-2,134
1356,876	-8	-2,516
1367,471	-11,5	-3,005
1378,079	-13,5	-3,456
1388,674	-13,5	-3,499
1399,269	-13,5	-3,496
1409,865	-13	-3,487
1420,466	-13,5	-3,492
1431,074	-13	-3,494
1441,669	-13	-3,48
1452,252	-12,5	-3,454
1462,836	-10	-3,287
1473,431	-8,5	-3,061
1484,032	-9,5	-3,241
1494,628	-9,5	-3,205
1505,211	-9,5	-3,211
1515,813	-10,5	-3,348
1526,408	-10,5	-3,333
1537,009	-11	-3,387
1547,611	-11,5	-3,404
1558,212	-12,5	-3,461
1568,802	-13	-3,467
1579,403	-13	-3,468
1589,998	-12,5	-3,463
1600,594	-12,5	-3,467
1611,183	-12	-3,432
1621,785	-12,5	-3,464
1632,392	-10,5	-3,368
1642,987	-12	-3,429
1653,589	-10,5	-3,362
1664,178	-8,5	-3,052
1674,774	-7	-2,804
1685,381	-5	-2,435
1695,976	-4,5	-2,196
1706,584	-4,5	-2,248
1717,185	-2	-1,434
1727,775	-0,5	-0,911
1738,382	-1,5	-1,44
1748,977	-1,5	-1,4
1759,573	-2	-1,46
1770,168	-2,5	-1,562
1780,764	-2,5	-1,66
1791,365	-2	-1,473
1801,966	-2	-1,323
1812,55	-1	-0,898
1823,151	0	-0,674
1833,74	1,5	-0,512
1844,348	2	-0,058
1854,937	2	-0,001
1865,533	2	-0,004
1876,14	2	-0,009
1886,735	2	-0,016
1897,331	1,5	-0,036
1907,926	1,5	-0,045
1918,522	2	-0,049
1929,117	1,5	-0,052
1939,706	0	-0,35
1950,308	-0,5	-0,807
1960,897	-1,5	-1,245
1971,499	-4,5	-2,038
1982,094	-8	-2,642
1992,683	-13	-3,456
2003,285	-13	-3,5
2013,874	-12,5	-3,496
2024,464	-12	-3,468
2035,053	-8,5	-3,131
2045,648	-3,5	-2,052
2056,238	-1	-1,073
2066,833	2	-0,163
2077,423	2	-0,006
2088,012	1	-0,123
2098,595	-0,5	-0,877
2109,209	-2	-1,418
2119,816	-5,5	-2,218
2130,406	-10,5	-3,056
2141,001	-12,5	-3,499
2151,596	-12	-3,487
2162,18	-10,5	-3,406
2172,775	-6	-2,869
2183,365	-4,5	-2,415
2193,942	-2,5	-1,816
2204,537	-2	-1,684
2215,133	-1,5	-1,511
2225,74	0	-0,611
2236,336	1,5	-0,499
2246,937	0,5	-0,6
2257,538	0,5	-0,653
2268,134	-0,5	-1,09
2278,723	-1,5	-1,381
2289,312	-1,5	-1,586
2299,908	-2,5	-1,838
2310,497	-3,5	-2,161
2321,081	-4,5	-2,538
2331,694	-7,5	-3,15
2342,289	-10,5	-3,424
2352,879	-11,5	-3,484
2363,48	-12	-3,496
2374,07	-12	-3,499
2384,665	-12	-3,207
2395,242	-10	-2,954
2405,832	-5,5	-2,372
2416,427	-3,5	-1,959
2427,029	-1,5	-1,476
2437,63	-0,5	-0,892
2448,219	0	-0,384
2458,797	1	-0,139
2469,386	2	-0,034
2479,988	2	-0,006
2490,589	2	-0,002
2501,172	2,5	-0,066
2511,774	1,5	-0,355
2522,357	0,5	-0,727
2532,947	-1	-1,289
2543,536	-2	-1,633
2554,131	-2,5	-1,868
2564,709	-3	-2,084
2575,31	-4	-2,465
2585,894	-5,5	-2,927
2596,483	-8	-3,29
2607,072	-9	-3,386
2617,674	-9,5	-3,423
2628,263	-10	-3,438
2638,865	-10	-3,455
2649,46	-10	-3,457
2660,055	-10,5	-3,472
2670,663	-10,5	-3,481
2681,27	-10,5	-3,491
2691,86	-10,5	-3,493
2702,455	-10,5	-3,494
2713,05	-10,5	-3,497
2723,646	-10,5	-3,498
2734,235	-10,5	-3,499
2744,83	-10,5	-3,419
2755,42	-9,5	-2,999
2766,015	-9	-2,934
2776,611	-7,5	-2,784
2787,212	-6	-2,604
2797,801	-5,5	-2,583
2808,397	-4,5	-2,188
2818,992	-4	-2,139
2829,582	-3	-2,014
2840,177	-2	-1,747
2850,772	-2	-1,648
2861,38	-1,5	-1,439
2871,981	-1	-1,28
2882,571	-1	-1,239
2893,166	-0,5	-1,217
2903,761	-0,5	-1,228
2914,357	0	-1,018
2924,946	0	-0,748
2935,542	0	-0,522
2946,125	0	-0,4
2956,72	1	-0,142
2967,316	1,5	-0,068
2977,905	1,5	-0,062
2988,489	1	-0,113
2999,09	2	-0,034
3009,685	2	-0,015
3020,281	2	-0,003
3030,876	2	-0,003
3041,471	2	-0,008
3052,061	2	-0,02
3062,65	1,5	-0,062
3073,24	1,5	-0,083
3083,847	1,5	-0,081
3094,46	1,5	-0,076
3105,044	1,5	-0,1
3115,633	1,5	-0,079
3126,217	0,5	-0,239
3136,8	0	-0,563
3147,389	0	-0,783
3157,979	0	-1,146
3168,586	-0,5	-1,468
3173,476	2,5	0