File: ensaios_Ciclicos/_50perc/_3gap/entrada/_4.txt
Time (s)	Load (N)	Displacement (mm)
0	0	-0,035
10,918	0	-0,43
21,741	1	-0,159
32,571	1	-0,219
43,418	1	-0,147
54,254	1	-0,242
65,101	1	-0,32
75,93	1	-0,284
86,79	1	-0,33
97,631	1,5	-0,065
108,503	1,5	-0,289
119,362	0	-0,566
130,209	0	-0,604
141,045	0	-0,641
151,922	-1,5	-0,942
162,781	-2,5	-1,046
173,629	-3	-1,196
184,494	-4,5	-1,65
195,341	-5,5	-1,922
206,219	-8	-2,435
217,054	-10	-2,743
227,926	-14	-3,3
238,779	-15,5	-3,446
249,633	-16,5	-3,483
260,498	-16,5	-3,497
271,357	-16,5	-3,499
282,228	-16,5	-3,377
293,088	-16	-3,071
303,953	-15,5	-3,01
314,849	-12,5	-2,534
325,708	-8,5	-2,127
336,597	-4,5	-1,581
347,463	-3	-1,18
358,352	-1	-0,756
369,236	0	-0,347
380,131	0	-0,264
391,02	1	-0,114
401,886	1,5	-0,055
412,793	2	-0,013
423,676	2	-0,005
434,572	2	-0,001
445,455	2	-0,001
456,333	2	-0,024
467,204	2	-0,055
478,093	1,5	-0,377
488,977	1,5	-0,319
499,86	1,5	-0,436
510,737	0	-0,615
521,615	-1	-0,895
532,504	-2	-1,085
543,406	-3	-1,474
554,283	-3,5	-1,63
565,178	-4	-1,946
576,068	-4,5	-2,046
586,945	-5,5	-2,236
597,828	-6,5	-2,437
608,712	-8,5	-2,778
619,595	-10,5	-3,056
630,491	-12,5	-3,343
641,374	-14	-3,417
652,245	-14,5	-3,451
663,135	-15	-3,478
674,018	-15	-3,484
684,889	-15	-3,487
695,761	-15	-3,493
706,632	-15	-3,496
717,516	-15	-3,497
728,411	-15	-3,499
739,276	-15	-3,499
750,16	-15	-3,42
761,037	-15	-3,308
771,896	-15	-3,306
782,774	-15	-3,179
793,663	-14,5	-3,08
804,535	-14	-3,076
815,436	-12	-2,83
826,325	-10,5	-2,667
837,203	-10	-2,664
848,068	-10	-2,615
858,945	-9,5	-2,581
869,811	-9	-2,49
880,706	-7,5	-2,269
891,572	-6,5	-2,12
902,437	-6	-1,974
913,314	-5	-1,791
924,186	-5	-1,814
935,051	-4,5	-1,774
945,923	-4,5	-1,791
956,788	-3	-1,499
967,647	-3	-1,499
978,519	-2,5	-1,336
989,378	-2	-1,285
1000,249	-2,5	-1,259
1011,121	-1,5	-1,116
1021,98	-1	-0,917
1032,834	-1	-0,918
1043,699	-1	-0,938
1054,564	-1,5	-0,979
1065,424	-1,5	-1,019
1076,277	-1,5	-0,971
1087,136	-1,5	-1,037
1098,008	-1	-1,086
1108,873	-1,5	-1,196
1119,727	-1	-1,095
1130,592	-1	-1,009
1141,457	-2	-1,179
1152,317	-2,5	-1,308
1163,182	-1,5	-1,19
1174,036	-1,5	-1,016
1184,901	-0,5	-0,865
1195,754	0	-0,451
1206,626	0	-0,474
1217,479	0	-0,357
1228,344	0	-0,472
1239,204	0,5	-0,316
1250,075	1,5	-0,092
1260,941	1	-0,134
1271,794	1	-0,146
1282,664	1	-0,102
1293,513	1	-0,086
1304,378	1,5	-0,096
1315,243	1,5	-0,038
1326,103	1,5	-0,036
1336,962	2	-0,03
1347,828	2	-0,014
1358,693	2	-0,005
1369,552	2	-0,002
1380,418	2	-0,002
1391,271	2	-0,002
1402,142	2	-0,001
1413,008	2	-0,001
1423,867	2	-0,001
1434,721	2	-0,001
1445,586	2	-0,001
1456,451	2	-0,002
1467,317	2	-0,003
1478,158	2	-0,006
1489,017	2	-0,021
1499,865	1,5	-0,054
1510,718	1,5	-0,07
1521,584	1,5	-0,086
1532,443	0	-0,351
1543,296	-1	-0,989
1554,15	-2,5	-1,458
1565,015	-4	-1,856
1575,869	-5,5	-2,106
1586,722	-6	-2,224
1597,581	-9,5	-2,731
1608,435	-10,5	-2,896
1619,294	-10	-2,882
1630,153	-8,5	-2,614
1641,013	-10	-2,839
1651,872	-10	-2,847
1662,732	-9	-2,716
1673,603	-8,5	-2,61
1684,456	-8,5	-2,616
1695,322	-9	-2,7
1706,175	-10	-2,86
1717,029	-10,5	-2,962
1727,888	-12	-3,104
1738,747	-11	-3,02
1749,607	-13,5	-3,462
1760,472	-13,5	-3,499
1771,319	-13,5	-3,498
1782,173	-13,5	-3,495
1793,038	-13,5	-3,491
1803,892	-13	-3,48
1814,751	-13	-3,467
1825,616	-12,5	-3,461
1836,47	-11,5	-3,414
1847,329	-10,5	-3,38
1858,188	-10,5	-3,373
1869,048	-10,5	-3,341
1879,907	-9	-3,187
1890,767	-9	-3,186
1901,632	-9,5	-3,269
1912,491	-8	-3,125
1923,345	-7	-2,901
1934,198	-5,5	-2,641
1945,057	-5	-2,436
1955,917	-4,5	-2,354
1966,77	-3	-2,067
1977,636	-4,5	-2,301
1988,501	-4,5	-2,361
1999,354	-5	-2,462
2010,208	-5,5	-2,647
2021,061	-7,5	-3,03
2031,902	-8	-3,066
2042,762	-10,5	-3,322
2053,621	-12,5	-3,458
2064,481	-13	-3,482
2075,346	-13,5	-3,494
2086,205	-13,5	-3,496
2097,059	-13	-3,499
2107,918	-13,5	-3,499
2118,766	-13	-3,5
2129,625	-13	-3,377
2140,484	-11,5	-3,065
2151,338	-12	-3,028
2162,191	-10,5	-2,895
2173,056	-9	-2,714
2183,91	-7,5	-2,545
2194,769	-6,5	-2,418
2205,617	-6	-2,41
2216,488	-6	-2,215
2227,341	-5	-2,173
2238,189	-5,5	-2,236
2249,06	-5	-2,135
2259,913	-4,5	-2,066
2270,767	-3,5	-1,896
2281,62	-3	-1,669
2292,474	-2,5	-1,616
2303,327	-2,5	-1,414
2314,174	-1,5	-1,189
2325,028	-1	-0,945
2335,887	-0,5	-0,804
2346,734	0	-0,744
2357,588	-0,5	-0,792
2368,441	-0,5	-0,787
2379,301	0	-0,725
2390,148	0	-0,66
2401,007	0	-0,556
2411,861	0	-0,214
2422,714	0,5	-0,162
2433,574	1,5	-0,052
2444,433	1,5	-0,064
2455,292	1	-0,113
2466,158	0,5	-0,15
2477,017	0,5	-0,218
2487,87	0	-0,491
2498,724	0	-0,662
2509,583	0	-0,627
2520,443	0	-0,825
2531,302	-1	-0,955
2542,161	-1	-1,255
2553,015	-1,5	-1,525
2563,874	-2,5	-1,736
2574,727	-2,5	-1,731
2585,587	-3	-1,862
2596,446	-3,5	-2,065
2607,306	-4	-2,104
2618,165	-3,5	-2,028
2629,024	-4,5	-2,185
2639,884	-4,5	-2,234
2650,731	-4	-2,191
2661,597	-4,5	-2,318
2672,462	-6	-2,474
2683,309	-4,5	-2,315
2694,157	-5,5	-2,473
2705,01	-6	-2,59
2715,875	-6	-2,584
2726,735	-5	-2,421
2737,6	-4,5	-2,34
2748,46	-4,5	-2,332
2759,313	-4	-2,27
2770,172	-2	-1,851
2781,038	-2	-1,701
2791,897	-1	-1,357
2802,756	-0,5	-1,205
2813,616	-0,5	-0,985
2824,469	0	-0,889
2835,323	-0,5	-0,916
2846,182	0	-0,94
2857,041	0	-0,852
2867,895	0	-0,752
2878,748	0	-0,619
2889,607	0	-0,408
2900,479	0,5	-0,243
2911,338	1	-0,112
2922,186	1	-0,121
2933,045	1	-0,142
2943,904	1	-0,123
2954,764	1,5	-0,072
2965,617	1,5	-0,051
2976,477	2	-0,034
2987,33	2	-0,026
2998,189	2	-0,018
3009,049	2	-0,006
3019,896	2	-0,003
3030,749	2	-0,001
3041,609	2	-0,001
3052,468	2	-0,001
3063,322	2	-0,001
3074,181	2	-0,001
3085,04	2	0
3095,894	2	-0,076
3106,747	2	-0,064
3117,612	2	-0,152
3128,472	2	-0,238
3139,325	1,5	-0,464
3150,185	1,5	-0,435
3161,038	0,5	-0,504
3171,903	1	-0,622
3182,763	-0,5	-0,912
3193,61	-0,5	-1,03
3204,457	-0,5	-1,235
3215,323	-1	-1,566
3226,182	-1,5	-1,925
3237,036	-1,5	-2,106
3247,895	-2,5	-2,385
3253,889	2	0