File: Cycling_tests/_50perc/_4gap/entrada/_1.txt
Time (s)	Load (N)	Displacement (mm)
0	0	-0,026
8,626	-1,5	-0,905
17,116	-2,5	-1,101
25,611	-4	-1,373
34,113	-5	-1,639
42,614	-5,5	-1,797
51,128	-5,5	-1,842
60,013	-15	-3,445
68,677	-17	-3,498
77,184	-17	-3,498
85,722	-17	-3,5
94,259	-16,5	-3,13
103,109	-3	-1,178
111,85	3	-0,083
120,796	1	-0,826
129,693	-12	-3,162
138,711	-14	-2,911
147,369	-6,5	-1,86
155,912	-4	-1,476
164,466	-1,5	-1,018
172,993	0	-0,613
181,5	2	-0,298
190,057	4	-0,034
198,575	4	-0,01
207,341	0,5	-0,959
215,884	-1,5	-1,429
260,756	-15	-3,494
269,293	-15	-3,499
277,843	-15	-3,196
286,368	-13,5	-2,926
294,912	-9	-2,302
303,431	-6	-1,894
311,969	-3,5	-1,453
320,513	0	-0,935
329,044	1,5	-0,499
337,599	4	-0,093
346,143	4,5	-0,011
354,674	4,5	-0,002
363,212	4	-0,36
371,75	0	-1,066
380,305	-2	-1,777
388,86	-6	-2,43
397,398	-8,5	-2,801
405,954	-12	-3,317
414,485	-13,5	-3,42
423,012	-14,5	-3,458
431,536	-15	-3,477
476,354	-12	-2,902
484,957	-6,5	-2,131
493,506	-5	-1,875
502,056	-2	-1,333
510,6	0	-0,99
519,137	1,5	-0,518
527,687	4	-0,141
536,224	4,5	-0,044
544,75	5	-0,017
553,275	5	-0,003
561,801	5	0
570,326	5	-0,284
578,852	4,5	-0,485
587,383	1,5	-0,9
595,891	1	-1,148
604,428	-1	-1,598
612,948	-4,5	-2,251
621,473	-8	-2,776
630,005	-10,5	-3,23
638,53	-13	-3,441
647,062	-14,5	-3,491
655,593	-14,5	-3,498
664,125	-14,5	-3,499
672,65	-14	-3,336
681,164	-13	-2,98
689,695	-11,5	-2,889
698,227	-10,5	-2,724
706,764	-8	-2,363
715,29	-5,5	-2,078
723,797	-4,5	-1,853
804,835	1,5	-0,614
813,372	2	-0,534
821,904	3	-0,343
830,429	3,5	-0,228
838,955	4	-0,116
847,474	5	-0,045
855,994	5,5	-0,016
864,507	5,5	-0,009
873,039	5,5	-0,004
881,558	5,5	-0,002
890,084	5,5	-0,001
898,609	5,5	-0,001
907,141	5,5	-0,078
915,666	5,5	-0,037
924,18	5,5	-0,084
932,711	5	-0,391
941,219	5	-0,287
949,739	5	-0,415
958,258	2,5	-0,846
966,783	1	-1,098
975,303	0,5	-1,204
983,828	0,5	-1,212
992,354	0	-1,31
1000,88	-0,5	-1,477
1009,399	-1,5	-1,685
1017,913	-3,5	-2,091
1026,426	-5,5	-2,543
1034,952	-9	-3,077
1043,471	-11	-3,312
1051,997	-13	-3,46
1060,51	-13,5	-3,48
1069,018	-13,5	-3,492
1077,561	-13,5	-3,499
1086,075	-13,5	-3,389
1094,588	-11,5	-2,971
1103,108	-7,5	-2,461
1111,627	-5	-2,063
1120,141	-4,5	-1,908
1128,642	-2	-1,605
1137,144	-0,5	-1,196
1145,651	0,5	-0,884
1154,165	2	-0,5
1162,678	4,5	-0,116
1171,192	4,5	-0,068
1179,699	5	-0,04
1188,207	5,5	-0,022
1196,726	5,5	-0,012
1205,24	5,5	-0,008
1213,753	5,5	-0,003
1222,267	5,5	-0,001
1230,78	5	-0,341
1239,288	5	-0,485
1247,801	2	-0,948
1256,315	0	-1,284
1264,834	-0,5	-1,634
1273,342	-1	-1,753
1281,849	0	-1,528
1290,381	-2,5	-2,087
1298,906	-4	-2,361
1307,42	-4	-2,378
1315,927	-5	-2,607
1324,435	-7,5	-2,953
1332,943	-7,5	-3,047
1341,462	-10,5	-3,399
1349,982	-11	-3,428
1358,489	-11,5	-3,443
1366,991	-12	-3,47
1375,51	-12	-3,492
1384,018	-12	-3,495
1392,537	-12	-3,499
1401,045	-11,5	-3,5
1409,63	-10	-3,006
1418,27	-2,5	-1,875
1426,795	-1	-1,527
1435,315	0	-1,209
1443,828	0,5	-1,144
1452,33	0	-1,214
1460,843	-0,5	-1,505
1469,357	0	-1,296
1477,852	0	-1,455
1486,372	0,5	-1,114
1494,885	1	-1,093
1503,399	0	-1,49
1511,912	-1,5	-1,74
1520,414	-1,5	-1,834
1528,927	-0,5	-1,552
1537,435	0	-1,368
1545,948	1	-1,048
1554,456	1,5	-0,97
1562,957	3,5	-0,483
1571,465	4	-0,183
1579,984	4,5	-0,089
1588,498	5,5	-0,021
1597,005	5,5	-0,011
1605,519	5,5	-0,005
1614,032	5,5	-0,008
1622,54	5,5	-0,01
1631,065	5,5	-0,003
1856,653	-4,5	-2,887
1865,154	-4,5	-2,8
1873,662	-3,5	-2,677
1882,181	-4	-2,665
1890,701	-5	-3,02
1899,208	-5,5	-3,124
1907,716	-6	-3,249
1916,229	-5,5	-3,139
1924,743	-6	-3,3
1933,256	-7	-3,374
1941,77	-7,5	-3,399
1950,277	-8	-3,447
1958,779	-7,5	-3,398
1967,304	-7,5	-3,408
1975,806	-8	-3,454
1984,307	-8	-3,458
1992,809	-8,5	-3,484
2001,328	-8	-3,492
2009,908	-8	-3,499
2018,403	-8	-3,498
2026,905	-8	-3,498
2035,436	-8	-3,5
2043,938	-8	-3,384
2052,445	-7,5	-3,196
2060,959	-7,5	-3,098
2069,472	-7	-3,102
2077,986	-5,5	-2,966
2086,487	-5	-2,765
2095,007	-3	-2,404
2175,834	4	-0,111
2184,342	4,5	-0,048
2192,849	4,5	-0,014
2201,351	5	-0,004
2209,852	4,5	-0,001
2218,366	4	-0,498
2226,879	1,5	-0,936
2235,399	0	-1,537
2243,9	-1,5	-2,083
2252,414	-3	-2,532
2260,927	-4,5	-3,191
2269,441	-6,5	-3,448
2277,949	-7,5	-3,491
2286,468	-7,5	-3,499
2294,982	-7	-3,182
2303,489	-4	-2,657
2311,997	-1,5	-2,078
2320,504	0	-1,454
2329,024	1,5	-0,689
2337,531	3,5	-0,132
2346,045	4,5	-0,027
2354,552	4,5	-0,008
2435,338	-6,5	-3,426
2443,851	-5	-2,894
2452,359	-2	-2,33
2460,86	-0,5	-1,689
2469,374	0	-1,263
2477,887	1	-0,755
2486,395	1,5	-0,664
2494,926	2,5	-0,233
2503,434	4	-0,083
2511,953	4	-0,062
2520,461	4,5	-0,029
2528,968	4,5	-0,005
2609,856	-1,5	-2,352
2618,453	-4	-3,172
2626,955	-5	-3,401
2635,456	-6	-3,478
2643,97	-6	-3,495
2652,471	-6	-3,498
2660,985	-6	-3,5
2669,492	-6	-3,154
2678,006	-4,5	-2,907
2686,519	-3,5	-2,672
2695,015	-2,5	-2,442
2703,54	-1	-1,897
2712,054	0	-1,503
2720,561	0	-1,387
2729,063	1	-0,925
2737,576	1,5	-0,535
2746,09	3	-0,188
2754,609	3,5	-0,08
2763,117	4	-0,038
2771,624	4,5	-0,012
2780,132	4,5	-0,004
2788,657	4,5	-0,002
2797,165	4,5	-0,001
2805,672	4,5	-0,053
2814,18	4	-0,288
2822,699	2,5	-0,698
2831,201	1,5	-0,928
2839,714	0	-1,252
2848,228	0	-1,54
2856,729	0	-1,791
2865,243	-1	-2,101
2873,75	-1,5	-2,374
2882,252	-2	-2,661
2890,766	-2,5	-2,922
2899,273	-2,5	-2,813
2907,781	-3	-2,976
2916,282	-2,5	-2,842
2924,796	-3	-3,02
2933,303	-3	-3,098
2941,817	-4	-3,308
2950,33	-4	-3,267
2958,838	-4,5	-3,348
2967,339	-4,5	-3,406
2975,835	-5,5	-3,457
2984,348	-6	-3,478
2992,85	-5,5	-3,471
3001,357	-5,5	-3,476
3009,859	-5,5	-3,469
3018,372	-5,5	-3,465
3026,892	-5,5	-3,45
3035,399	-5	-3,418
3080,073	-6	-3,47
3088,58	-5,5	-3,468
3097,082	-5	-3,411
3105,607	-5	-3,438
3114,121	-5	-3,439
3122,628	-5	-3,406
3131,142	-5	-3,412
3139,649	-3,5	-3,256
3148,169	-3,5	-3,307
3156,682	-4	-3,353
3165,19	-4,5	-3,39
3173,008	4	-0,001