File: Cycling_tests/_50perc/_4gap/entrada/_5.txt
Time (s)	Load (N)	Displacement (mm)
0	0	-0,034
10,822	1	-0,388
21,556	1,5	-0,13
32,307	1,5	0
43,04	1,5	-0,001
53,78	1,5	-0,001
64,519	1,5	-0,002
75,259	2	-0,006
86,01	1,5	-0,015
96,749	0	-0,244
107,483	-3	-1,054
118,216	-5,5	-1,554
128,967	-6	-1,75
139,737	-7	-1,858
150,494	-6	-1,799
161,234	-7,5	-1,944
171,997	-5	-1,7
182,754	-6	-1,819
193,506	-7,5	-2,031
204,275	-7,5	-2,19
215,057	-10,5	-2,519
225,832	-14	-2,899
236,595	-13,5	-2,919
247,371	-13,5	-2,899
258,146	-13	-2,86
268,915	-14,5	-3,079
279,685	-15	-3,042
290,461	-15	-3,183
301,242	-14,5	-2,994
312,041	-15	-3,059
322,822	-15	-3,052
333,598	-14	-2,969
344,391	-11,5	-2,673
355,161	-12	-2,695
365,948	-10,5	-2,547
376,711	-10	-2,513
387,487	-8,5	-2,362
398,256	-8,5	-2,263
409,019	-8,5	-2,244
419,795	-7	-2,082
430,576	-6	-1,926
441,352	-5	-1,731
452,139	-3,5	-1,614
462,908	-4,5	-1,68
473,678	-4,5	-1,739
484,459	-4,5	-1,785
495,247	-4,5	-1,696
506,04	-4	-1,672
516,821	-4,5	-1,734
527,615	-3,5	-1,583
538,402	-4	-1,643
549,177	-5	-1,82
559,965	-5,5	-1,969
570,746	-7	-2,164
581,516	-5,5	-2,005
592,279	-6	-2,115
603,048	-6,5	-2,09
613,818	-5	-1,979
624,587	-5,5	-1,995
635,368	-5	-2,025
646,138	-6	-2,084
656,925	-5,5	-2,016
667,701	-5	-1,97
678,494	-5	-1,984
689,269	-4,5	-1,928
700,051	-4,5	-1,911
710,838	-4,5	-1,906
721,608	-4,5	-1,934
732,401	-3,5	-1,734
743,17	-4,5	-1,926
753,946	-4,5	-1,907
764,715	-5,5	-1,993
775,466	-4,5	-1,95
786,242	-3	-1,478
797,011	-1	-0,958
807,781	-0,5	-0,832
818,538	0	-0,733
829,313	0	-0,67
840,077	0	-0,638
850,84	0	-0,657
861,616	0,5	-0,264
872,391	2	-0,064
883,178	2,5	-0,027
893,942	3	-0,015
904,711	3	-0,014
915,51	2,5	-0,009
926,292	3	-0,011
937,085	3	-0,014
947,873	2,5	-0,016
958,654	2,5	-0,022
969,435	2,5	-0,019
980,211	2,5	-0,021
990,986	3	-0,012
1001,762	3	-0,008
1012,531	3	-0,006
1023,312	3	-0,002
1034,094	3	-0,001
1044,851	3	-0,002
1055,626	3	-0,001
1066,396	3	-0,001
1077,154	3	-0,001
1087,929	3	-0,004
1098,692	3	0
1109,479	3	-0,014
1120,243	3	-0,001
1131,03	3	-0,001
1141,794	3	-0,002
1152,563	3	-0,003
1163,326	3	-0,009
1174,096	3	-0,012
1184,859	2,5	-0,037
1195,641	2	-0,097
1206,404	1	-0,244
1217,179	0	-0,536
1227,949	0	-0,563
1238,712	0	-0,71
1249,469	-0,5	-0,915
1260,221	-1,5	-1,27
1270,996	-2	-1,39
1281,748	-3	-1,741
1292,499	-4,5	-1,969
1303,28	-5	-2,079
1314,062	-5,5	-2,137
1324,831	-2,5	-1,532
1335,612	-1,5	-1,296
1346,37	-1,5	-1,308
1357,145	-1	-1,099
1367,903	-0,5	-1,122
1378,666	-0,5	-1,014
1389,423	-0,5	-1,08
1400,199	-1	-1,289
1410,968	-2,5	-1,668
1421,744	-3	-1,77
1432,501	-3,5	-2,033
1443,282	-3,5	-1,989
1454,052	-4,5	-2,191
1464,827	-4,5	-2,232
1475,59	-5	-2,32
1486,36	-5,5	-2,474
1497,129	-5	-2,343
1507,887	-6	-2,551
1518,65	-8	-2,789
1529,419	-9	-3,029
1540,183	-9,5	-3,049
1550,952	-9,5	-3,087
1561,71	-10,5	-3,483
1572,479	-10,5	-3,499
1583,236	-10,5	-3,498
1593,994	-10,5	-3,494
1604,763	-10	-3,486
1615,52	-9,5	-3,444
1626,29	-9,5	-3,417
1637,065	-9	-3,384
1647,829	-7,5	-3,276
1658,604	-6	-3,06
1669,367	-5,5	-2,918
1680,161	-5,5	-2,93
1690,93	-4,5	-2,681
1701,7	-3,5	-2,468
1712,469	-2,5	-2,111
1723,238	-2,5	-1,946
1734,014	-1,5	-1,731
1744,783	-1,5	-1,689
1755,552	-1	-1,603
1766,328	-1	-1,414
1777,085	-0,5	-1,216
1787,855	0	-0,88
1798,618	1,5	-0,53
1809,375	3	-0,316
1820,151	3	-0,17
1830,926	3	-0,218
1841,684	3	0
1852,459	3	-0,001
1863,228	3	-0,002
1873,998	3	-0,002
1884,767	3	-0,006
1895,53	2,5	-0,016
1906,312	2,5	-0,014
1917,075	3	-0,006
1927,857	3	-0,002
1938,638	3	-0,001
1949,389	3	-0,035
1960,171	3	-0,192
1970,94	2	-0,446
1981,704	1	-0,596
1992,479	1	-0,764
2003,254	0	-0,985
2014,018	0	-1,136
2024,793	-0,5	-1,367
2035,544	-0,5	-1,347
2046,32	-0,5	-1,451
2057,077	-1	-1,826
2067,841	-1,5	-1,865
2078,622	-2	-2,169
2089,397	-2	-2,156
2100,161	-1,5	-2,21
2110,924	-2	-2,313
2121,682	-2,5	-2,502
2132,445	-2,5	-2,685
2143,214	-3	-2,807
2153,984	-3	-2,956
2164,759	-3,5	-3,07
2175,529	-4,5	-3,36
2186,292	-5,5	-3,442
2197,055	-6	-3,475
2207,831	-6	-3,494
2218,6	-6	-3,497
2229,375	-6	-3,499
2240,133	-6	-3,401
2250,902	-5,5	-3,218
2261,666	-3,5	-2,969
2272,435	-2,5	-2,629
2283,222	-1,5	-2,369
2293,998	-1	-2,16
2304,767	-0,5	-2,064
2315,524	-0,5	-1,944
2326,288	0	-1,725
2337,045	0	-1,535
2347,821	0	-1,431
2358,59	0	-1,08
2369,359	0	-1,054
2380,123	0,5	-0,829
2390,892	0,5	-0,744
2401,656	0	-0,934
2412,425	0	-1,009
2423,194	0	-0,823
2433,97	0,5	-0,713
2444,745	0,5	-0,654
2455,509	0,5	-0,609
2466,29	0,5	-0,49
2477,047	1	-0,238
2487,799	1,5	-0,15
2498,574	1,5	-0,093
2509,337	2	-0,059
2520,101	2	-0,05
2530,87	2,5	-0,026
2541,628	2,5	-0,028
2552,409	2,5	-0,02
2563,172	2,5	-0,018
2573,936	3	-0,01
2584,705	2,5	-0,006
2595,468	2,5	-0,005
2606,244	2,5	-0,004
2617,019	2,5	-0,002
2627,795	2,5	-0,002
2638,57	2,5	-0,001
2649,333	2,5	-0,001
2660,109	2,5	0
2670,878	3	-0,029
2681,648	2,5	-0,226
2692,423	0,5	-0,616
2703,192	0,5	-0,652
2713,968	0	-0,964
2724,731	0	-1,151
2735,506	0	-1,331
2746,282	-0,5	-1,471
2757,045	-0,5	-1,6
2767,815	-0,5	-1,696
2778,578	-0,5	-1,831
2789,341	-1	-1,985
2800,117	-1	-2,186
2810,88	-1	-2,4
2821,65	-1,5	-2,495
2832,419	-1,5	-2,68
2843,182	-1,5	-2,831
2853,952	-1,5	-3,017
2864,721	-1,5	-3,181
2875,484	-2,5	-3,314
2886,272	-2,5	-3,391
2897,041	-3	-3,443
2907,811	-3	-3,461
2918,574	-3,5	-3,479
2929,331	-3,5	-3,49
2940,107	-3,5	-3,496
2950,876	-3,5	-3,498
2961,634	-3	-3,498
2972,397	-3,5	-3,499
2983,166	-3	-3,5
2993,942	-3	-3,499
3004,711	-3,5	-3,5
3015,486	-3	-3,44
3026,244	-3	-3,497
3037,007	-3	-3,5
3047,771	-3	-3,499
3058,54	-3	-3,439
3069,303	-3	-3,483
3080,061	-3	-3,5
3090,83	-3	-3,499
3101,6	-3	-3,499
3112,369	-3	-3,468
3123,15	-3	-3,333
3133,914	-3	-3,305
3144,671	-3	-3,201
3155,441	-3	-3,225
3166,198	-2	-3,09
3176,967	-2,5	-3,176
3187,737	-2,5	-3,171
3198,53	-1	-2,854
3209,293	-1	-2,783
3220,081	-0,5	-2,544
3229,53	2	0