File: Cycling_tests/_30perc/_3gap/entrada/_2.txt
Time (s)	Load (N)	Displacement (mm)
46,294	-24	-3,499
50,211	-20	-3,311
54,129	-5,5	-1,352
58,557	-8,5	-1,902
62,39	1,5	-0,002
66,352	-2,5	-0,476
70,23	-18	-2,53
74,162	-23,5	-3,494
77,918	-8	-1,854
81,787	1,5	-0,001
85,615	-3	-0,672
90,073	0	-0,131
138,1	-8	-2,002
141,928	2	-0,001
145,666	-5	-1,18
149,403	-22,5	-3,499
153,741	-22,5	-3,498
157,473	-12	-2,55
161,265	2	-0,015
165,08	-1,5	-0,504
168,746	-22,5	-3,499
172,436	-9,5	-2,46
176,024	2	-0,018
179,624	-18,5	-2,771
183,283	-14	-3,017
187,465	-10	-2,282
190,988	2	-0,031
194,647	-15,5	-2,54
198,289	-16	-3,076
201,895	2	-0,001
205,56	-10	-1,679
209,136	-20	-3,41
212,658	2	-0,001
216,3	-8	-1,493
220,589	-7,5	-1,559
224,225	-21,5	-3,482
227,891	-1,5	-0,886
231,575	-0,5	-0,288
235,205	-22	-3,499
238,84	-7	-1,919
242,507	2	-0,015
246,218	-11,5	-2,12
249,724	-13,5	-2,781
253,354	2	-0,002
256,947	-11,5	-2,06
260,51	-15	-3,083
263,997	2,5	-0,006
267,477	-21,5	-3,182
271,022	-7,5	-2,048
274,533	1,5	-0,052
278,036	-21,5	-3,499
281,588	-3,5	-1,203
285,192	0	-0,242
288,721	-21,5	-3,498
292,819	-21	-3,474
296,371	2	-0,297
299,917	-6	-1,5
303,433	-18,5	-3,388
306,996	2	0
310,476	-13	-2,349
314,034	-12	-2,9
317,604	2,5	-0,003
321,125	-17	-2,774
324,701	-10,5	-2,498
328,733	-3,5	-1,238
332,219	-3	-0,99
335,699	-21	-3,466
339,179	2,5	-0,006
342,73	-8	-1,71
346,156	-14	-2,896
349,6	2	-0,022
353,056	-21	-3,5
356,493	-3	-1,101
359,979	-3	-1,035
363,441	-19,5	-3,432
366,915	2,5	-0,001
370,443	-12	-2,225
373,911	-10	-2,571
377,336	1,5	-0,084
380,823	-21	-3,498
384,334	-1	-0,787
387,776	-6	-1,56
391,232	-15	-3,075
394,706	2,5	-0,005
398,119	-21	-3,285
401,539	-3,5	-1,301
404,953	-3	-1,084
408,439	-20	-3,442
411,828	2,5	-0,003
415,296	-17	-2,864
418,638	-3	-1,244
422,064	-3,5	-1,129
425,508	-18,5	-3,42
428,909	2	-0,005
432,305	-21	-3,5
435,707	-2	-0,961
439,601	2	-0,01
443,051	-21	-3,5
446,38	0	-0,646
449,752	-10	-2,13
453,13	-8	-2,178
456,532	-1	-0,495
459,964	-20	-3,481
463,395	2,5	-0,001
466,821	-15,5	-2,721
470,271	-6	-1,87
473,613	-2,5	-0,951
477,048	-17	-3,426
480,44	2,5	-0,004
483,83	-20,5	-3,461
487,238	-2,5	-1,081
490,664	-3,5	-1,234
494,078	-15	-3,301
497,497	2,5	-0,009
500,881	-20,5	-3,499
504,265	-1,5	-0,77
507,589	-10	-2,146
550,264	-20	-3,347
553,696	-2,5	-1,203
557,104	-4,5	-1,33
560,482	-13,5	-3,027
563,866	2	-0,022
567,778	-4,5	-1,315
571,107	-11,5	-2,817
574,473	1,5	-0,076
577,845	-20	-3,493
581,109	2,5	-0,002
584,481	-18,5	-3,028
587,888	-3,5	-1,414
591,296	-3,5	-1,065
594,578	-10,5	-2,7
597,962	1,5	-0,091
601,28	-19,5	-3,479
604,585	3	-0,003
608,017	-19,5	-3,261
611,906	-17	-3,396
615,235	2,5	-0,019
618,607	-19,5	-3,498
621,948	2,5	-0,142
625,308	-14	-2,589
628,644	-3	-1,403
632,004	-4,5	-1,375
635,435	-15	-3,241
638,772	2	-0,036
642,209	-19,5	-3,498
645,515	2,5	-0,201
648,875	-13,5	-2,573
652,187	-3,5	-1,506
655,45	-6,5	-1,638
658,828	-9,5	-2,637
662,668	1,5	-0,517
666,04	-11	-2,29
669,304	-3,5	-1,496
672,681	-4	-1,304
675,975	-9,5	-2,548
679,305	-0,5	-0,465
682,587	-16,5	-3,38
685,959	2,5	-0,008
689,277	-19,5	-3,498
692,666	2,5	-0,288
696,021	-13,5	-2,544
699,284	-2,5	-1,242
702,608	-6	-1,678
705,871	-5,5	-2,007
709,249	-1	-0,712
712,555	-15,5	-3,325
716,419	-2,5	-1,158
719,689	-9,5	-2,08
723,001	-5,5	-1,982
726,294	-3	-1,136
729,606	-10,5	-2,827
733,014	1,5	-0,062
736,29	-19	-3,467
739,698	2,5	-0,002
742,997	-19,5	-3,5
785,427	-9	-2,683
788,739	-0,5	-0,504
792,021	-14,5	-3,292
795,356	2,5	-0,039
798,698	-19,5	-3,496
802,022	3	-0,001
805,364	-15,5	-2,898
808,67	-1,5	-0,996
811,969	-8	-2,024
815,317	-6	-2,176
818,623	-2	-1,061
822,481	-19	-3,254
825,793	-0,5	-0,819
829,159	-7,5	-1,929
832,518	-6,5	-2,268
835,872	-0,5	-0,593
839,203	-17	-3,401
842,538	2,5	-0,016
845,867	-19	-3,498
849,173	3	-0,001
852,527	-15,5	-2,914
855,827	-2	-1,075
859,151	-6,5	-1,846
900,974	-3	-1,513
904,244	-5,5	-1,784
907,532	-5	-2,01
910,82	-2,5	-1,179
914,09	-8	-2,482
917,401	-0,5	-0,7
920,665	-11,5	-2,958
923,929	0	-0,347
927,211	-16	-3,388
930,451	1,5	-0,102
933,757	-17,5	-3,473
937,056	3	-0,014
1017,218	-11,5	-2,923
1020,512	0,5	-0,237
1023,793	-17,5	-3,435
1026,991	2	-0,075
1030,285	-18,5	-3,485
1033,585	3	-0,003
1036,837	-18,5	-3,497
1040,101	3	-0,001
1043,394	-18,5	-3,362
1046,706	1,5	-0,582
1050	-12,5	-2,552
1092,016	-5	-2,048
1095,267	-3	-1,252
1098,562	-9,5	-2,782
1101,897	0	-0,26
1105,233	-18	-3,472
1108,521	3	-0,01
1111,772	-18,5	-3,494
1115,024	3	-0,003
1118,3	-18,5	-3,498
1121,552	3	0
1124,894	-15,5	-2,93
1128,139	0	-0,712
1169,897	-18	-3,307
1173,197	0,5	-0,654
1176,521	-9,5	-2,309
1179,754	-2	-1,236
1182,976	-9,5	-2,258
1186,204	-2,5	-1,302
1189,492	-6	-1,789
1192,774	-5	-2,081
1196,079	-1,5	-0,939
1199,313	-9	-2,708
1202,558	-0,5	-0,72
1205,824	-11	-2,981
1399,21	-0,5	-0,656
1402,45	-11,5	-2,993
1405,701	0	-0,278
1408,93	-14,5	-3,331
1412,217	2,5	-0,047
1415,481	-17,5	-3,478
1418,805	3	-0,003
1422,045	-18	-3,498
1425,284	3	-0,001
1428,56	-18	-3,5
1431,819	2,5	-0,233
1510,851	3	0
1514,085	-17,5	-3,498
1517,337	2,5	-0,263
1520,607	-15	-2,914
1523,877	-1	-0,945
1527,087	-10,5	-2,423
1530,32	-2	-1,327
1533,596	-6	-1,868
1536,8	-3,5	-1,744
1540,052	-4	-1,48
1543,292	-5	-2,148
1546,477	-3,5	-1,468
1662,337	3	-0,001
1665,595	-17,5	-3,5
1668,882	2,5	-0,393
1672,11	-14,5	-2,949
1675,338	0,5	-0,604
1678,555	-13,5	-2,873
1681,776	1	-0,597
1685,046	-11,5	-2,593
1688,262	-1	-0,949
1691,471	-11,5	-2,675
1694,717	-0,5	-0,978
1697,969	-8,5	-2,306
1701,245	-2,5	-1,524
1704,43	-6,5	-2,076
1707,664	-2,5	-1,56
1710,844	-7,5	-2,096
1714,102	-3	-1,606
1717,3	-6	-1,912
1720,491	-2,5	-1,482
1723,683	-7,5	-2,071
1726,935	-3	-1,616
1730,133	-6	-1,96
1733,349	-3	-1,566
3190,887	3	-0,003
3194,056	-7,5	-3,486
3197,247	2,5	-0,03
3200,409	-5,5	-3,395
3203,625	1,5	-0,094
3206,811	-4,5	-3,281
3210,068	1,5	-0,132
3212,588	3	0