File: Cycling_tests/_30perc/_3gap/entrada/_3.txt
Time (s)	Load (N)	Displacement (mm)
0	-0,5	-0,051
10,832	0,5	-0,119
21,602	0,5	-0,001
32,371	1	-0,004
43,158	1	-0,019
53,934	1	-0,025
64,703	1	-0,037
75,479	1	-0,041
86,26	1	-0,045
97,041	0,5	-0,049
107,811	1	-0,048
118,628	1	-0,021
129,428	1,5	-0,015
140,203	1,5	-0,01
151,008	1,5	-0,02
161,814	1,5	-0,011
172,601	1,5	-0,017
183,394	1,5	-0,023
194,176	1	-0,071
204,969	1	-0,069
215,775	1	-0,07
226,58	0,5	-0,1
237,397	1	-0,087
248,191	0	-0,213
259,014	0	-0,244
269,819	-1	-0,419
280,643	-1	-0,542
291,46	-2	-0,718
302,266	-3	-1,011
313,095	-5	-1,232
323,912	-5,5	-1,237
334,712	-6,5	-1,519
345,523	-7,5	-1,697
356,323	-7,5	-1,706
367,134	-9	-1,853
377,933	-10,5	-2,028
388,745	-10	-2,047
399,538	-12	-2,315
410,361	-12	-2,238
421,173	-11	-2,107
431,978	-12	-2,29
442,796	-12	-2,326
453,595	-13	-2,41
464,412	-13,5	-2,538
475,236	-14	-2,588
486,047	-15	-2,612
496,852	-15	-2,768
507,67	-14	-2,602
518,481	-14	-2,541
529,293	-13	-2,506
540,086	-12,5	-2,467
550,921	-12,5	-2,444
561,751	-13,5	-2,588
572,568	-13	-2,443
583,368	-13	-2,438
594,167	-13,5	-2,506
605,008	-12,5	-2,327
615,808	-11	-2,268
626,613	-10	-2,094
637,406	-8,5	-1,974
648,218	-8,5	-1,919
659,029	-7,5	-1,831
669,835	-6,5	-1,714
680,658	-5,5	-1,642
691,463	-5	-1,532
702,275	-6	-1,578
713,08	-5,5	-1,584
723,892	-4,5	-1,433
734,697	-4,5	-1,499
745,502	-5	-1,552
756,326	-5	-1,527
767,155	-3,5	-1,296
777,954	-5	-1,583
788,766	-5,5	-1,613
799,565	-8	-1,963
810,371	-10	-2,245
821,182	-12	-2,313
831,975	-13	-2,581
842,781	-14	-2,657
853,58	-15,5	-2,853
864,391	-18,5	-3,15
875,179	-19,5	-3,499
885,996	-19	-3,499
896,802	-19,5	-3,499
907,607	-19,5	-3,499
918,413	-19,5	-3,498
929,212	-19,5	-3,499
940,011	-19	-3,499
950,823	-19	-3,499
961,628	-19	-3,499
972,445	-19	-3,499
983,263	-19	-3,499
994,074	-19	-3,499
1004,879	-19	-3,5
1015,685	-19	-3,499
1026,484	-19	-3,499
1037,278	-19	-3,499
1048,077	-19	-3,499
1058,894	-19	-3,498
1069,7	-18,5	-3,496
1080,487	-18,5	-3,481
1091,293	-18,5	-3,482
1102,098	-18	-3,466
1112,897	-16,5	-3,417
1123,703	-14,5	-3,339
1134,508	-12,5	-3,157
1145,301	-11,5	-3,028
1156,101	-10	-2,778
1166,9	-7	-2,433
1177,712	-7,5	-2,414
1188,493	-5,5	-2,047
1199,286	-3,5	-1,605
1210,098	-2,5	-1,389
1220,897	-2	-1,144
1231,684	-1	-0,793
1242,502	-0,5	-0,692
1253,295	1,5	-0,386
1264,101	1,5	-0,353
1274,9	2,5	-0,179
1285,729	2	-0,236
1296,535	2,5	-0,132
1307,322	2,5	-0,004
1318,128	2,5	-0,001
1328,939	2,5	-0,001
1339,726	2,5	-0,002
1350,52	2	-0,015
1361,313	2	-0,031
1372,112	2	-0,048
1382,924	1	-0,128
1393,729	0,5	-0,202
1404,535	1	-0,144
1415,34	0	-0,344
1426,127	-0,5	-0,649
1436,933	-1	-0,803
1447,738	-1,5	-0,99
1458,544	-2	-1,119
1469,331	-2,5	-1,27
1480,13	-2,5	-1,242
1490,936	-1	-0,801
1501,711	-1	-0,784
1512,504	-1,5	-0,977
1523,31	-1,5	-1,074
1534,103	-3	-1,374
1544,897	-4	-1,536
1555,69	-4,5	-1,559
1566,495	-5	-1,673
1577,295	-6,5	-1,938
1588,088	-9	-2,223
1598,875	-15	-2,85
1609,669	-17,5	-3,236
1620,474	-17,5	-3,372
1631,286	-17,5	-3,344
1642,091	-17,5	-3,322
1652,896	-17,5	-3,445
1663,684	-17,5	-3,497
1674,495	-17,5	-3,5
1685,295	-17,5	-3,499
1696,094	-17	-3,499
1706,905	-17,5	-3,499
1717,693	-17,5	-3,499
1728,492	-17,5	-3,498
1739,279	-17,5	-3,498
1750,091	-17,5	-3,498
1760,884	-17,5	-3,498
1771,69	-17	-3,498
1782,507	-17,5	-3,498
1793,306	-17,5	-3,498
1804,106	-17,5	-3,498
1814,899	-17,5	-3,497
1825,693	-17	-3,496
1836,492	-17	-3,496
1847,291	-17	-3,494
1858,091	-17	-3,489
1868,89	-17	-3,489
1879,677	-16,5	-3,476
1890,477	-17	-3,475
1901,276	-16,5	-3,476
1912,076	-16,5	-3,478
1922,875	-16,5	-3,479
1933,668	-16,5	-3,488
1944,474	-16,5	-3,49
1955,267	-16,5	-3,494
1966,049	-16,5	-3,491
1976,842	-16,5	-3,498
1987,629	-16,5	-3,499
1998,441	-16,5	-3,494
2009,234	-16	-3,383
2020,027	-16,5	-3,408
2030,827	-16	-3,42
2041,62	-16	-3,322
2052,426	-16	-3,17
2063,219	-16	-3,346
2074,006	-16	-3,5
2084,8	-15,5	-3,499
2095,593	-16	-3,498
2106,387	-16	-3,496
2117,174	-16	-3,495
2127,979	-15,5	-3,493
2138,779	-15,5	-3,488
2149,572	-15	-3,481
2160,365	-15,5	-3,475
2171,153	-15	-3,486
2181,958	-15	-3,492
2192,752	-15	-3,495
2203,557	-15	-3,495
2214,356	-15	-3,497
2225,156	-15	-3,498
2235,949	-15	-3,414
2246,742	-7,5	-2,409
2257,542	-2	-1,493
2268,335	0	-0,684
2279,141	1	-0,286
2289,934	0	-0,485
2300,727	1	-0,208
2311,521	1,5	-0,145
2322,32	2,5	-0,041
2333,108	2,5	-0,035
2343,901	2,5	-0,017
2354,706	3	-0,003
2365,5	3	-0,001
2376,287	2,5	-0,18
2387,092	0	-0,795
2397,88	-0,5	-1,032
2408,685	-2,5	-1,793
2419,473	-5,5	-2,53
2430,254	-8	-3,017
2441,047	-12,5	-3,42
2451,847	-13,5	-3,485
2462,64	-13,5	-3,497
2473,44	-13,5	-3,499
2484,233	-13,5	-3,332
2495,02	-10,5	-2,916
2505,826	-7,5	-2,599
2516,625	-4,5	-2,258
2527,418	-2,5	-1,718
2538,212	-0,5	-1,162
2549,005	0	-0,59
2559,787	1,5	-0,119
2570,562	2,5	-0,035
2581,367	3	-0,003
2592,155	2,5	-0,001
2602,942	3	-0,154
2613,747	0,5	-0,646
2624,541	-0,5	-1,078
2635,322	-1	-1,313
2646,128	-2	-1,822
2656,933	-3	-2,273
2667,72	-4,5	-2,629
2678,514	-6	-2,977
2689,307	-7,5	-3,302
2700,089	-8,5	-3,398
2710,876	-10,5	-3,464
2721,675	-11	-3,492
2732,463	-11	-3,496
2743,256	-11	-3,498
2754,05	-11	-3,499
2764,855	-11	-3,343
2775,642	-10,5	-3,134
2786,436	-6,5	-2,747
2797,235	-4,5	-2,427
2808,022	-3,5	-2,215
2818,834	-2	-1,926
2829,639	-1	-1,48
2840,421	-0,5	-1,244
2851,208	0	-0,985
2861,995	0	-0,736
2872,789	1	-0,324
2883,582	1,5	-0,128
2894,375	2,5	-0,032
2905,163	2,5	-0,01
2915,956	3	-0,003
2926,756	3	-0,001
2937,567	3	-0,232
2948,354	2	-0,371
2959,142	0,5	-0,584
2969,941	-0,5	-0,914
2980,735	-1	-1,321
2991,528	-1	-1,483
3002,327	-1,5	-1,872
3013,133	-3	-2,317
3023,932	-3	-2,418
3034,725	-5	-2,953
3045,531	-6,5	-3,133
3056,33	-6	-3,186
3067,118	-5,5	-3,127
3077,917	-5,5	-3,129
3088,716	-5,5	-3,124
3099,51	-7	-3,344
3110,309	-9	-3,464
3121,115	-9	-3,479
3131,908	-9	-3,475
3142,689	-9	-3,477
3153,489	-9	-3,486
3164,264	-9	-3,487
3175,063	-9	-3,492
3185,851	-9	-3,49
3196,656	-9,5	-3,495
3207,45	-9	-3,494
3218,237	-9	-3,494
3229,042	-9	-3,491
3236,824	2,5	-0,001