File: Cycling_tests/_30perc/_3gap/entrada/_4.txt
Time (s)	Load (N)	Displacement (mm)
0	0	-0,031
10,546	0	-0,378
20,992	1,5	0
31,437	1,5	-0,001
41,882	1,5	-0,002
52,34	1,5	-0,006
62,803	1,5	-0,011
73,273	1,5	-0,01
83,748	2	-0,009
94,205	1,5	-0,01
104,663	2	-0,015
115,114	0,5	-0,094
125,578	0,5	-0,147
136,053	1	-0,068
146,5	0,5	-0,117
156,95	0	-0,18
167,419	0	-0,282
177,913	-1	-0,538
188,382	-1,5	-0,649
198,864	-3,5	-0,974
209,369	-5	-1,242
219,844	-6,5	-1,473
230,332	-6,5	-1,571
240,813	-7	-1,639
251,3	-7,5	-1,695
261,776	-8,5	-1,803
272,269	-10	-2,062
282,757	-12,5	-2,276
293,259	-16	-2,596
303,767	-17	-2,763
314,279	-19	-2,864
324,796	-18,5	-2,874
335,284	-21	-3,212
345,771	-21,5	-3,499
356,27	-21,5	-3,494
366,788	-21,5	-3,492
377,305	-21	-3,468
387,805	-20,5	-3,456
398,328	-21	-3,488
408,839	-21	-3,496
419,357	-21	-3,499
429,85	-21	-3,293
440,368	-20,5	-3,135
450,855	-18	-2,98
461,342	-16,5	-2,802
471,842	-10	-2,063
482,353	-6,5	-1,7
492,835	-5	-1,445
503,34	-3	-1,111
513,845	-2	-0,868
524,345	-0,5	-0,523
534,832	0,5	-0,2
545,332	2,5	-0,025
555,813	2,5	-0,015
566,306	2,5	-0,006
576,8	3	-0,001
587,299	3	0
597,793	2,5	-0,196
608,298	-1	-0,852
618,785	-2,5	-1,091
629,267	-4,5	-1,697
639,766	-8,5	-2,367
650,254	-12	-2,919
660,741	-15	-3,271
671,228	-16	-3,329
681,698	-16,5	-3,355
692,179	-18	-3,406
702,673	-16	-3,419
713,154	-17,5	-3,403
723,623	-19	-3,452
734,099	-19,5	-3,479
744,592	-19,5	-3,483
755,086	-19,5	-3,491
765,555	-19,5	-3,492
776,036	-19,5	-3,494
786,53	-19,5	-3,494
797,047	-19,5	-3,497
807,547	-19,5	-3,499
818,022	-19,5	-3,5
828,509	-19,5	-3,135
839,003	-17	-2,936
849,508	-14,5	-2,699
860,008	-15	-2,698
870,507	-13,5	-2,58
880,994	-12	-2,492
891,482	-11	-2,324
901,951	-8,5	-2,085
912,433	-5,5	-1,718
922,92	-5	-1,47
933,407	-3	-1,201
943,901	-3	-1,129
954,382	-2,5	-1,06
964,864	-2	-1,066
975,357	-1,5	-0,86
985,838	-1	-0,712
996,326	-0,5	-0,74
1006,825	-1	-0,789
1017,313	-1	-0,799
1027,806	-1	-0,793
1038,311	-2	-1,003
1048,781	-3,5	-1,412
1059,274	-4	-1,369
1069,774	-4,5	-1,507
1080,255	-10	-2,33
1090,742	-16,5	-3,002
1101,224	-18,5	-3,412
1111,717	-18,5	-3,236
1122,247	-18,5	-3,461
1132,74	-18,5	-3,499
1143,227	-18,5	-3,499
1153,709	-18,5	-3,498
1164,19	-18,5	-3,492
1174,678	-18,5	-3,485
1185,165	-15	-3,428
1195,652	-14,5	-3,286
1206,134	-14	-3,224
1216,627	-11,5	-2,922
1227,109	-9	-2,559
1237,608	-5,5	-1,991
1248,077	-3,5	-1,622
1258,559	-2	-1,307
1269,028	-2,5	-1,191
1279,504	-1,5	-0,975
1289,979	0	-0,886
1300,466	-2	-1,22
1310,96	-3	-1,593
1321,441	-3	-1,53
1331,941	-3,5	-1,706
1342,446	-6	-2,294
1352,921	-6	-2,21
1363,403	-5,5	-2,206
1373,896	-6,5	-2,341
1384,39	-7	-2,482
1394,883	-7,5	-2,463
1405,364	-6	-2,324
1415,852	-5	-2,2
1426,322	-4,5	-1,927
1436,815	-4	-1,828
1447,308	-3	-1,607
1457,789	-2	-1,225
1468,277	-1,5	-1,026
1478,758	1	-0,531
1489,24	2,5	-0,001
1499,727	3	-0,002
1510,208	3	-0,003
1520,684	3	-0,004
1531,159	3	-0,01
1541,647	2,5	-0,023
1552,122	2	-0,061
1562,597	2	-0,057
1573,091	2,5	-0,051
1583,578	3	-0,035
1594,072	3	-0,018
1604,559	3	-0,011
1615,034	3	-0,009
1625,51	3	-0,012
1635,997	3	-0,01
1646,479	3	-0,006
1656,966	3	-0,004
1667,453	3	-0,008
1677,941	3	-0,011
1688,422	3	-0,008
1698,904	3	-0,005
1709,379	3	-0,004
1719,854	3	-0,006
1730,33	3	-0,012
1740,805	2,5	-0,013
1751,281	2,5	-0,03
1761,762	2	-0,069
1772,243	1,5	-0,129
1782,725	0	-0,438
1793,206	-1,5	-1,014
1803,688	-4,5	-1,554
1814,169	-4,5	-1,644
1824,644	-5,5	-1,817
1835,114	-3	-1,42
1845,589	-2	-1,208
1856,071	-1,5	-1,056
1866,546	-0,5	-0,75
1877,021	-0,5	-0,605
1887,509	0	-0,473
1897,99	0	-0,399
1908,472	0	-0,373
1918,947	0	-0,471
1929,428	-0,5	-0,694
1939,922	-0,5	-0,72
1950,409	-0,5	-0,784
1960,891	-2	-1,177
1971,378	-3,5	-1,439
1981,847	-5	-1,765
1992,323	-9	-2,373
2002,792	-12,5	-2,72
2013,28	-15	-3,046
2023,755	-16,5	-3,355
2034,242	-16,5	-3,5
2044,718	-16,5	-3,499
2055,211	-16	-3,498
2065,693	-15,5	-3,497
2076,18	-15,5	-3,495
2086,667	-15,5	-3,494
2097,143	-15,5	-3,492
2107,63	-15	-3,488
2118,112	-15	-3,468
2128,581	-15	-3,445
2139,062	-13	-3,38
2149,556	-14	-3,397
2160,031	-11,5	-3,25
2170,519	-9,5	-3,048
2180,988	-8	-2,738
2191,475	-6	-2,51
2201,963	-5,5	-2,407
2212,444	-4,5	-2,097
2222,92	-3	-1,91
2233,389	-2	-1,435
2243,87	-1	-0,91
2254,352	0	-0,75
2264,827	2	-0,363
2275,297	3	-0,001
2285,772	3	-0,004
2296,241	3	-0,013
2306,723	2,5	-0,042
2317,204	1,5	-0,09
2327,704	0,5	-0,219
2338,179	0	-0,583
2348,654	-0,5	-0,914
2359,112	-2,5	-1,554
2369,593	-3,5	-1,815
2380,063	-6	-2,316
2390,544	-5,5	-2,22
2401,02	-6,5	-2,345
2411,507	-6	-2,348
2421,97	-7,5	-2,469
2432,458	-7,5	-2,588
2442,945	-11,5	-2,977
2453,427	-12,5	-3,056
2463,908	-11,5	-3,024
2474,389	-10	-2,97
2484,865	-9,5	-2,862
2495,346	-6,5	-2,6
2505,821	-8	-2,71
2516,291	-5,5	-2,53
2526,778	-4	-2,192
2537,26	-3	-2,022
2547,741	-2	-1,787
2558,216	-1	-1,608
2568,686	-0,5	-1,494
2579,161	0	-1,06
2589,643	0,5	-0,838
2600,13	0,5	-0,631
2610,611	1,5	-0,204
2621,093	2,5	-0,072
2631,568	3	-0,023
2642,044	3	-0,011
2652,531	3,5	-0,002
2663,007	3	-0,001
2673,488	2,5	-0,29
2683,975	2	-0,4
2694,445	1,5	-0,49
2704,932	0,5	-0,696
2715,402	-0,5	-1,062
2725,889	-1	-1,454
2736,364	-1,5	-1,844
2746,858	-2,5	-2,271
2757,339	-4	-2,67
2767,815	-4,5	-2,806
2778,302	-5	-3,092
2788,801	-6	-3,371
2799,277	-8,5	-3,44
2809,758	-9	-3,486
2820,246	-9,5	-3,495
2830,721	-9	-3,498
2841,196	-9	-3,5
2851,69	-9	-3,189
2862,165	-6,5	-2,945
2872,641	-5	-2,668
2883,134	-2,5	-2,191
2893,615	-1	-1,697
2904,097	0	-1,266
2914,578	0,5	-0,654
2925,06	1	-0,325
2935,547	2	-0,094
2946,022	3	-0,019
2956,51	3	-0,004
2967,003	3	-0,027
2977,473	1,5	-0,543
2987,948	0	-0,816
2998,435	0	-0,991
3008,911	0	-1,106
3019,374	-0,5	-1,345
3029,868	-1	-1,815
3040,355	-1,5	-2,09
3050,848	-1,5	-2,251
3061,324	-2,5	-2,423
3071,805	-3	-2,753
3082,293	-4,5	-3,087
3092,78	-6,5	-3,404
3103,261	-8	-3,455
3113,755	-8	-3,484
3124,236	-8	-3,493
3134,718	-8,5	-3,499
3144,101	3	-0,001