File: ensaios_Ciclicos/_newS/_4G30/entrada/_2.txt
Time (s)	Load (N)	Displacement (mm)
0	-0,14	-0,031
10,726	-1,4	-0,677
21,345	-2,08	-0,852
31,959	-2	-0,922
42,608	-0,68	-0,725
53,24	2,08	-0,53
63,889	2,36	-0,439
74,562	1,88	-0,458
85,206	1,64	-0,515
95,843	2,62	-0,46
106,474	2,24	-0,535
117,124	0,76	-0,706
127,785	-1,2	-0,947
138,441	-3	-1,169
149,132	-5,42	-1,56
159,805	-4,76	-1,462
170,486	-7,44	-1,826
181,128	-8,44	-1,986
191,82	-10,68	-2,341
202,487	-11,28	-2,452
213,16	-12,18	-2,477
223,864	-14,78	-2,79
234,567	-17,22	-3,06
245,258	-18,48	-3,201
255,95	-18,96	-3,21
266,635	-18,16	-3,141
277,327	-21,86	-3,418
288,006	-21,3	-3,39
298,679	-17,02	-3,106
309,371	-16,56	-3,05
320,062	-15,42	-3,032
330,772	-20,44	-3,356
341,451	-18,78	-3,247
352,148	-22,52	-3,445
362,84	-22,48	-3,462
373,531	-21,66	-3,42
384,217	-16,24	-3,155
394,914	-17,34	-3,198
405,605	-13,66	-2,781
416,279	-12,64	-2,631
426,964	-10,68	-2,433
437,649	-9,66	-2,364
448,335	-11,4	-2,544
459,002	-10,58	-2,449
469,694	-10,72	-2,568
480,373	-10,36	-2,491
491,052	-8,94	-2,322
501,75	-11,08	-2,573
512,429	-9,8	-2,414
523,115	-8,52	-2,175
533,812	-8	-2,133
544,503	-2,02	-1,281
555,189	4,74	-0,429
565,862	5,42	-0,299
576,56	4,94	-0,37
587,245	5,64	-0,001
597,942	5,66	-0,002
608,628	5,66	-0,002
619,319	5,66	-0,001
630,01	5,6	-0,219
640,69	5,32	-0,313
651,381	5,32	-0,32
662,073	5,76	-0,002
672,77	5,72	-0,014
683,461	4,46	-0,102
694,159	-1,66	-0,839
704,832	-6,66	-1,571
715,518	-7,3	-1,614
726,227	-4,1	-1,244
736,912	-7,4	-1,633
747,598	-12,54	-2,249
758,283	-17,22	-2,766
768,968	-21,98	-3,451
779,666	-22,1	-3,498
790,369	-21,94	-3,495
801,055	-21,92	-3,497
811,734	-21,94	-3,497
822,425	-21,84	-3,49
833,105	-20,7	-3,448
843,79	-20,18	-3,437
854,482	-19,74	-3,403
865,167	-19,76	-3,415
875,846	-17,68	-3,346
886,538	-18,54	-3,368
897,229	-15,12	-3,224
907,897	-13,32	-2,892
918,57	-17,56	-3,295
929,249	-17,22	-3,282
939,935	-16,88	-3,247
950,632	-14,24	-3,132
961,318	-10,3	-2,546
972,003	-11,16	-2,605
982,7	-10,54	-2,654
993,392	-11,86	-2,778
1004,077	-11,08	-2,693
1014,756	-10,04	-2,594
1025,442	-12,48	-2,768
1036,121	-14,96	-3,073
1046,801	-16,14	-3,222
1057,468	-19,22	-3,413
1068,148	-20,66	-3,474
1078,833	-20,98	-3,494
1089,53	-20,74	-3,496
1100,204	-20,52	-3,497
1110,889	-20,3	-3,498
1121,586	-19,98	-3,499
1132,266	-19,78	-3,499
1142,945	-19,5	-3,498
1153,631	-19,32	-3,5
1164,31	-18,34	-3,079
1175,001	-11,1	-2,33
1185,675	-6,94	-1,939
1196,372	-3,24	-1,385
1207,051	-0,26	-0,895
1217,737	1,86	-0,523
1228,41	2,84	-0,36
1239,078	0,82	-0,718
1249,775	-0,26	-0,919
1260,466	-0,2	-0,942
1271,152	-1,22	-1,144
1281,831	0,6	-0,796
1292,499	-4,88	-1,691
1303,202	-2,88	-1,483
1313,881	-5,3	-1,923
1324,561	-9,12	-2,4
1335,246	-10,08	-2,518
1345,932	-12,96	-2,821
1356,641	-15,24	-3,048
1367,344	-13,48	-2,899
1378,019	-11,14	-2,703
1388,691	-14,82	-3,02
1399,376	-8,68	-2,344
1410,074	-4,24	-1,732
1420,777	-2,26	-1,429
1431,451	0,18	-0,868
1442,142	1,6	-0,632
1452,851	2,18	-0,484
1463,525	0,78	-0,758
1474,216	2,24	-0,468
1484,896	2,76	-0,354
1495,569	2,78	-0,299
1506,266	3,42	-0,225
1516,952	3,32	-0,308
1527,637	1,6	-0,654
1538,329	1,4	-0,737
1549,002	0,16	-0,951
1559,693	-2,3	-1,463
1570,373	-4,32	-1,798
1581,058	-5,08	-1,935
1591,732	-7,28	-2,32
1602,423	-5,52	-2,11
1613,114	-6,92	-2,272
1623,806	-5,98	-2,193
1634,497	-6,38	-2,107
1645,189	-6,56	-2,269
1655,88	-5,88	-2,117
1666,565	-3	-1,68
1677,251	-2,44	-1,517
1687,924	-1,04	-1,226
1698,627	0,78	-0,84
1709,301	0,74	-0,889
1719,986	1,46	-0,672
1730,678	3,08	-0,318
1741,357	3,54	-0,226
1752,036	4,88	-0,108
1762,716	5,8	-0,039
1773,389	5,94	-0,022
1784,075	6,12	-0,008
1794,778	6,12	-0,001
1805,457	6,1	-0,001
1816,143	6,1	-0,001
1826,834	6,08	-0,001
1837,519	6,06	-0,001
1848,199	6,06	-0,001
1858,884	6,06	-0,001
1869,582	6,04	-0,001
1880,255	6,02	0
1890,94	6,02	-0,042
1901,608	6	0
1912,299	5,98	-0,053
1922,973	5,98	-0,012
1933,646	5,96	-0,001
1944,343	5,94	-0,223
1955,027	4,56	-0,502
1965,702	1,12	-0,912
1976,406	0,6	-1,182
1987,097	-1,74	-1,673
1997,77	-4,32	-2,226
2008,456	-4,08	-2,351
2019,123	-4,36	-2,282
2029,833	-4,34	-2,343
2040,512	-3,76	-2,217
2051,197	-3,84	-2,201
2061,877	-5,38	-2,572
2072,556	-5,8	-2,63
2083,229	-7,3	-2,922
2093,909	-8,22	-3,176
2104,588	-10,42	-3,38
2115,286	-11,8	-3,454
2125,965	-12,26	-3,483
2136,662	-12,16	-3,488
2147,342	-12,24	-3,488
2158,015	-12,18	-3,486
2168,713	-12,24	-3,494
2179,392	-12,18	-3,497
2190,083	-12,08	-3,498
2200,745	-12	-3,497
2211,424	-11,92	-3,183
2222,091	-9,14	-2,915
2232,771	-6,2	-2,462
2243,468	-4,6	-2,152
2254,136	-3,98	-2,03
2264,827	-2,34	-1,713
2275,494	-1,16	-1,325
2286,198	0,82	-0,747
2296,877	1,9	-0,399
2307,557	5,14	-0,035
2318,254	5,62	-0,003
2328,915	5,6	-0,001
2339,601	5,58	-0,005
2350,262	3,1	-0,656
2360,948	-0,38	-1,347
2371,633	-2,7	-2,063
2382,3	-5,98	-2,878
2392,986	-8,26	-3,304
2403,665	-10,94	-3,478
2414,339	-11,26	-3,498
2425,036	-11,2	-3,5
2435,727	-11,16	-3,322
2446,395	-11,16	-3,243
2457,086	-9,52	-2,972
2467,759	-9,12	-2,931
2478,427	-6,46	-2,549
2489,13	-4,08	-2,188
2499,81	-4,12	-2,16
2510,501	-4,62	-2,242
2521,168	-4,94	-2,338
2531,866	-4,22	-2,214
2542,527	-5,92	-2,505
2553,202	-7,06	-2,666
2563,874	-5,6	-2,359
2574,565	-4,6	-2,26
2585,245	-3,94	-2,126
2595,93	-2,68	-1,764
2606,616	-2,16	-1,622
2617,283	-1,34	-1,484
2627,944	-1,82	-1,567
2638,63	-1,42	-1,445
2649,315	-1,64	-1,504
2659,994	-1,34	-1,37
2670,668	-0,96	-1,314
2681,353	0	-0,989
2692,051	0,58	-0,749
2702,736	1	-0,712
2713,415	0,46	-0,918
2724,089	0,28	-0,861
2734,78	0,86	-0,741
2745,454	0,26	-0,978
2756,133	0,7	-0,779
2766,818	1,64	-0,466
2777,498	2,06	-0,374
2788,183	3,62	-0,116
2798,845	3,12	-0,134
2809,536	4,88	-0,035
2820,215	5,06	-0,024
2830,907	5,18	-0,014
2841,58	5,12	-0,015
2852,259	5,22	-0,009
2862,933	5,26	-0,006
2873,624	5,26	-0,006
2884,304	5,28	-0,003
2894,977	5,26	-0,004
2905,668	5,26	-0,002
2916,354	5,26	-0,002
2927,045	5,26	-0,002
2937,737	5,26	-0,002
2948,398	5,24	-0,002
2959,083	5,24	-0,002
2969,769	5,24	-0,002
2980,442	5,24	-0,002
2991,122	5,24	-0,002
3001,795	5,22	-0,001
3012,462	5,24	-0,001
3023,148	5,22	-0,001
3033,833	5,2	-0,001
3044,512	5,22	-0,001
3055,174	5,2	-0,002
3065,865	5,2	-0,001
3076,551	5,18	-0,001
3087,236	5,18	0
3097,909	5,18	-0,001
3108,583	5,18	-0,001
3119,262	5,16	0
3129,954	5,16	-0,001
3140,633	5,16	-0,001
3151,306	5,14	0
3161,986	5,14	-0,048
3172,665	5,12	-0,228
3183,345	4,5	-0,361
3194,03	2,26	-0,722
3200,156	5,14	-0,001