File: Cycling_tests/_60perc/_4gap/entrada/_2.txt
Time (s)	Load (N)	Displacement (mm)
0	0	-0,025
10,817	0,5	-0,143
21,508	0,5	-0,001
32,205	1	-0,004
42,903	1	-0,013
53,606	0,5	-0,038
64,304	0	-0,117
75,037	0	-0,338
85,74	-1	-0,679
96,45	-2,5	-1,143
107,171	-3,5	-1,364
117,892	-5	-1,752
128,608	-6	-1,959
139,317	-10	-2,445
186,181	-12	-3,419
196,914	-10,5	-3,331
207,641	-9,5	-3,126
218,369	-9,5	-3,14
229,114	-8,5	-3,062
239,841	-7,5	-2,798
250,575	-6,5	-2,677
261,29	-6	-2,518
272,03	-5	-2,298
282,781	-4,5	-2,16
293,556	-4,5	-2,158
304,284	-3	-1,815
315,023	-3	-1,807
325,757	-3	-1,67
336,484	-2	-1,352
347,217	-1,5	-1,108
357,939	-1	-0,869
368,66	0	-0,542
379,393	1,5	-0,274
390,139	1,5	-0,011
400,866	1,5	0
411,618	1,5	-0,002
422,345	1,5	-0,003
433,084	1,5	-0,008
443,836	1,5	-0,014
454,581	1,5	-0,02
465,327	1,5	-0,044
476,09	1	-0,091
486,829	0,5	-0,164
497,581	0	-0,439
508,308	-0,5	-0,772
519,065	-1,5	-1,071
529,811	-2	-1,357
540,55	-3	-1,666
551,29	-5	-2,094
562,035	-6	-2,298
572,768	-8,5	-2,709
583,52	-9	-2,836
594,241	-10,5	-3,087
604,987	-11	-3,247
615,72	-11	-3,499
626,477	-11	-3,499
637,217	-10,5	-3,498
647,944	-10,5	-3,498
658,684	-10,5	-3,496
669,423	-11	-3,493
680,174	-10,5	-3,481
690,914	-10	-3,453
701,641	-10	-3,424
712,368	-9	-3,35
723,108	-8	-3,188
733,859	-6	-2,954
744,581	-4,5	-2,555
755,326	-3,5	-2,184
766,047	-3	-1,837
776,775	-2	-1,59
787,502	-1,5	-1,14
798,254	-0,5	-0,794
809,005	0,5	-0,438
819,744	1,5	-0,164
830,484	1,5	-0,001
841,211	1,5	-0,003
851,938	1,5	-0,006
862,684	1,5	-0,013
873,423	1,5	-0,074
884,157	0	-0,331
894,89	-0,5	-0,89
905,617	-2,5	-1,638
916,333	-4	-2,056
927,066	-5,5	-2,36
937,806	-5,5	-2,434
948,545	-7,5	-2,75
959,278	-10	-3,177
970,018	-10,5	-3,5
980,739	-10,5	-3,499
991,473	-10,5	-3,486
1002,194	-9	-3,362
1012,927	-6	-2,947
1023,661	-4	-2,469
1034,376	-2,5	-1,864
1045,11	-1,5	-1,481
1055,831	0	-0,8
1066,558	1,5	-0,006
1077,292	1,5	-0,002
1088,013	1,5	-0,011
1098,734	1	-0,111
1109,45	-0,5	-1,024
1120,171	-4	-2,094
1130,911	-7	-2,612
1141,644	-10	-3,5
1152,359	-10	-3,497
1163,087	-9,5	-3,454
1173,826	-5,5	-2,805
1184,56	-3	-2,029
1195,293	-1,5	-1,411
1206,02	1	-0,366
1216,736	1,5	-0,001
1227,451	1,5	-0,008
1238,179	1	-0,072
1248,888	0	-0,602
1259,609	-1,5	-1,442
1270,343	-3	-1,952
1281,082	-5,5	-2,47
1291,815	-9	-3,108
1302,537	-10	-3,499
1313,264	-10	-3,494
1323,992	-9,5	-3,448
1334,719	-6	-3,02
1345,446	-4	-2,426
1356,162	-2	-1,836
1366,901	-1	-1,346
1377,61	0	-0,764
1388,344	0	-0,589
1399,065	1,5	-0,003
1409,787	1,5	-0,002
1420,508	1,5	-0,005
1431,229	1,5	-0,025
1441,945	0,5	-0,217
1452,666	-0,5	-1,167
1463,412	-3	-1,889
1474,139	-5,5	-2,484
1484,872	-7,5	-2,816
1495,594	-10	-3,499
1506,303	-10	-3,49
1517,03	-8	-3,338
1527,752	-5	-2,856
1538,461	-2,5	-2,103
1549,189	-1,5	-1,526
1559,91	-0,5	-0,982
1570,631	0	-0,795
1581,353	1,5	-0,172
1592,098	1,5	-0,001
1602,808	1,5	-0,003
1613,523	1,5	-0,015
1624,238	1	-0,083
1634,96	0	-0,41
1645,675	0	-0,93
1656,397	-3,5	-1,994
1667,118	-10	-3,242
1677,839	-10	-3,497
1688,555	-8,5	-3,402
1699,276	-4,5	-2,764
1709,991	-2,5	-1,941
1720,713	-0,5	-0,906
1731,416	1,5	-0,266
1742,15	1,5	-0,001
1752,883	1,5	-0,005
1763,604	1,5	-0,012
1774,308	1,5	-0,065
1785,035	0	-0,333
1795,751	-0,5	-0,928
1806,478	-0,5	-1,144
1817,193	-2,5	-1,774
1827,903	-4,5	-2,415
1838,618	-8	-2,952
1849,316	-10	-3,499
1860,037	-10	-3,496
1870,758	-9,5	-3,481
1881,486	-8,5	-3,428
1892,213	-6	-3,061
1902,928	-3	-2,28
1913,662	-1,5	-1,471
1924,395	0	-0,541
1935,123	1,5	-0,001
1945,856	1,5	-0,013
1956,565	0	-0,256
1967,287	0	-0,769
1978,002	-1,5	-1,364
1988,724	-3	-2,013
1999,439	-6,5	-2,762
2010,154	-9,5	-3,389
2020,876	-9,5	-3,498
2031,603	-9,5	-3,494
2042,318	-8,5	-3,45
2053,046	-5,5	-3,108
2063,755	-3	-2,324
2074,489	-1	-1,58
2085,204	0	-0,741
2095,919	1,5	-0,206
2106,635	1,5	-0,002
2117,362	1,5	-0,009
2128,066	1	-0,082
2138,793	0	-0,361
2149,52	-0,5	-1,008
2160,23	-1,5	-1,723
2170,963	-4	-2,275
2181,69	-7	-2,81
2192,412	-9	-3,458
2203,133	-9	-3,498
2213,861	-9	-3,496
2224,582	-9	-3,486
2235,303	-8,5	-3,462
2246,031	-7	-3,326
2256,752	-4,5	-2,916
2267,462	-2,5	-2,244
2278,189	-1,5	-1,81
2288,91	-1	-1,442
2299,626	-0,5	-0,906
2310,335	1	-0,488
2321,063	1,5	0
2331,784	2	-0,002
2342,517	1,5	-0,005
2353,239	1,5	-0,018
2363,966	1,5	-0,064
2374,694	0,5	-0,224
2385,415	0	-0,844
2396,142	-0,5	-1,427
2406,87	-1,5	-1,748
2417,579	-4,5	-2,437
2428,3	-7,5	-3,141
2439,01	-8,5	-3,498
2449,737	-8,5	-3,475
2460,453	-7	-3,403
2471,18	-5	-3,031
2481,913	-2,5	-2,452
2492,635	-1,5	-1,935
2503,356	-1	-1,536
2514,09	-0,5	-1,105
2524,799	0	-0,645
2535,52	1,5	-0,054
2546,236	1,5	-0,002
2556,957	1,5	-0,005
2567,678	1,5	-0,022
2578,394	1	-0,114
2589,115	0	-0,62
2599,837	-0,5	-1,158
2610,558	-1,5	-1,691
2621,285	-4	-2,279
2632,007	-5	-2,684
2642,722	-7	-2,996
2653,444	-8	-3,497
2664,159	-8	-3,499
2674,886	-8	-3,496
2685,608	-7,5	-3,484
2696,347	-7	-3,413
2707,068	-4,5	-2,99
2717,778	-2	-2,355
2728,499	-1	-1,699
2739,221	0	-0,975
2749,936	1,5	-0,427
2760,645	1,5	-0,152
2771,361	1,5	-0,112
2782,076	1,5	0
2792,798	1,5	-0,001
2803,525	1,5	-0,002
2814,246	2	-0,012
2824,962	1,5	-0,066
2835,677	0,5	-0,318
2846,399	0	-0,915
2857,12	-0,5	-1,266
2867,835	-1	-1,793
2878,545	-2,5	-2,21
2889,26	-4,5	-2,666
2899,969	-6,5	-3,159
2910,679	-7	-3,201
2921,4	-7,5	-3,384
2932,116	-7	-3,499
2942,837	-7	-3,497
2953,558	-6,5	-3,492
2964,274	-6,5	-3,47
2975,001	-6	-3,457
2985,729	-6	-3,449
2996,438	-5,5	-3,438
3007,171	-4,5	-3,301
3017,899	-3	-2,984
3028,62	-2	-2,35
3039,341	-1,5	-2,062
3050,057	-0,5	-1,621
3060,778	-0,5	-1,317
3071,482	0	-0,79
3082,197	1,5	-0,224
3092,912	1,5	0
3103,64	1,5	-0,001
3114,355	1,5	-0,005
3125,065	1,5	-0,014
3135,762	1	-0,067
3146,483	0,5	-0,275
3157,205	0	-0,54
3167,92	0	-1,139
3178,642	-1	-1,796
3189,369	-1,5	-2,015
3200,09	-3,5	-2,829
3210,812	-5	-3,195
3221,515	-5,5	-3,498
3232,224	-5,5	-3,489
3242,946	-4,5	-3,415
3246,534	1,5	0