File: Cycling_tests/_60perc/_4gap/entrada/_3.txt
Time (s)	Load (N)	Displacement (mm)
72,241	-11,5	-2,752
76,849	-3	-1,089
81,444	1	-0,043
86,034	1	-0,018
90,625	-3	-1,438
95,213	-9	-2,905
99,821	-14	-3,496
104,423	-11	-2,751
109,031	-3	-1,21
113,614	0,5	-0,069
118,204	1	0
122,807	-3	-1,286
127,408	-8	-2,791
132,019	-14	-3,49
136,617	-14	-3,295
141,237	-6	-1,919
254,396	0	-0,55
258,986	-3,5	-2,012
263,606	-11	-3,383
268,22	-13,5	-3,498
272,827	-9,5	-2,489
277,465	-1	-0,89
282,073	1,5	-0,02
286,693	1	-0,43
291,312	-4,5	-2,106
295,92	-11	-3,382
300,534	-13	-3,499
305,154	-8	-2,475
309,761	-1	-0,839
314,375	1,5	-0,01
319,001	0	-0,636
323,615	-4,5	-2,143
328,222	-11,5	-3,433
332,83	-13	-3,499
337,45	-6	-2,175
342,057	0	-0,608
346,665	1,5	-0,004
351,279	0	-0,698
355,905	-5,5	-2,362
360,506	-12	-3,465
437,578	-3	-1,766
442,192	-9,5	-3,295
446,793	-12,5	-3,498
451,401	-8,5	-2,644
456,021	-1	-1,016
460,641	1,5	-0,021
465,266	0,5	-0,482
469,88	-4	-2,071
474,482	-11	-3,387
479,102	-12,5	-3,498
483,703	-8	-2,59
488,307	-1,5	-1,154
492,925	1,5	-0,024
497,533	1	-0,383
502,14	-3	-1,902
506,748	-10	-3,343
511,368	-12	-3,498
515,981	-6	-2,337
520,595	-0,5	-0,777
525,215	1,5	-0,01
529,829	0	-0,621
534,442	-3,5	-2,122
539,056	-11	-3,426
543,67	-12	-3,499
548,284	-6,5	-2,405
552,897	-0,5	-0,936
557,499	1,5	-0,018
562,125	1	-0,415
566,733	-3,5	-1,93
571,334	-10	-3,354
575,948	-12	-3,498
580,562	-7,5	-2,498
585,175	-1	-1,007
589,789	1,5	-0,022
594,403	1,5	-0,407
599,005	-2,5	-1,716
603,606	-8	-3,19
608,214	-12	-3,497
612,828	-8	-2,689
762,207	1,5	0
766,815	-1,5	-1,459
771,423	-6	-2,936
776,031	-11,5	-3,493
780,638	-10,5	-3,06
785,246	-3	-1,554
789,866	1	-0,11
794,474	1,5	-0,001
799,075	-2	-1,441
803,689	-7	-3,001
808,291	-11,5	-3,494
812,899	-9	-2,879
817,5	-1,5	-1,358
822,108	1	-0,085
826,716	1,5	0
831,335	-2	-1,455
835,943	-6	-2,916
840,551	-11,5	-3,491
845,159	-10,5	-3,126
849,766	-2,5	-1,557
854,38	1	-0,085
858,994	1,5	-0,001
863,602	-1,5	-1,324
868,209	-6	-2,843
872,817	-11,5	-3,493
877,413	-11,5	-3,168
882,015	-3	-1,678
886,622	0	-0,255
891,236	1,5	-0,002
895,838	-1	-0,936
900,439	-3,5	-2,261
905,047	-10	-3,439
909,661	-11,5	-3,499
914,263	-5,5	-2,32
918,876	-0,5	-0,845
923,478	1,5	-0,025
928,08	1,5	-0,041
932,688	-2	-1,528
937,289	-7	-3,034
941,885	-11	-3,492
946,481	-11,5	-3,326
951,089	-3	-1,794
955,69	0	-0,389
960,292	1,5	-0,005
964,894	0	-0,74
969,496	-3,5	-2,182
974,097	-10,5	-3,452
1520,906	1	-0,421
1525,514	-2,5	-1,866
1530,122	-8	-3,336
1534,723	-10,5	-3,499
1539,319	-6	-2,585
1543,921	-0,5	-0,905
1548,516	1,5	-0,017
1553,124	1,5	-0,32
1557,726	-2	-1,789
1562,334	-8,5	-3,353
1566,935	-10,5	-3,499
1571,531	-5	-2,391
1576,145	-0,5	-0,911
1580,741	1,5	-0,015
1585,354	1	-0,344
1589,956	-2,5	-1,94
1594,57	-9,5	-3,405
1599,172	-10,5	-3,499
1603,785	-6	-2,476
1608,387	-0,5	-0,998
1613,001	1,5	-0,015
1617,603	1,5	-0,298
1622,21	-2,5	-1,871
1626,812	-6	-3,19
1631,408	-10,5	-3,497
1636,003	-8,5	-2,901
1640,605	-1,5	-1,401
1645,207	1,5	-0,062
1649,809	1,5	0
1654,404	-1,5	-1,428
1659	-5,5	-2,95
1663,62	-10,5	-3,494
1668,228	-7,5	-2,812
1672,835	-1	-1,229
1677,443	1,5	-0,028
1682,033	1,5	-0,223
1686,635	-2	-1,855
1691,242	-8	-3,341
1695,85	-10	-3,498
1700,452	-5,5	-2,479
1705,053	-0,5	-0,867
1709,649	1,5	-0,018
1714,257	1,5	-0,411
1718,857	-2	-1,923
1723,46	-8,5	-3,361
1728,062	-10,5	-3,499
1732,664	-5	-2,342
1737,266	0	-0,609
1741,855	1,5	-0,008
1746,457	0	-0,652
1751,065	-2,5	-2,103
1755,667	-9,5	-3,443
1760,268	-10	-3,499
1764,87	-4	-2,114
1769,478	0	-0,42
1846,399	0	-0,729
1851,007	1,5	-0,005
1855,603	-0,5	-0,902
1860,199	-3,5	-2,482
1864,8	-10	-3,48
1869,414	-9	-3,117
1874,01	-1,5	-1,556
1878,612	1	-0,089
2063,887	-10	-3,3
2068,489	-2	-1,655
2073,09	1	-0,102
2077,692	1,5	0
2082,294	-1,5	-1,463
2086,896	-6	-3,07
2091,497	-9,5	-3,496
2096,099	-6,5	-2,813
2100,695	-0,5	-1,195
2105,297	1,5	-0,04
2109,898	1,5	-0,064
2114,488	-1	-1,526
2119,09	-6	-3,168
2123,698	-9,5	-3,496
2128,293	-6	-2,693
2132,889	-0,5	-1,069
2282,029	-9,5	-3,494
2286,63	-7	-2,812
2291,232	-0,5	-1,132
2295,834	1,5	-0,021
2300,436	1	-0,44
2305,031	-2	-2,064
2309,633	-8,5	-3,447
2314,235	-9	-3,499
2499,528	0	-0,953
2504,13	-3,5	-2,571
2508,732	-9	-3,484
2513,345	-9	-3,228
2517,941	-2	-1,766
2522,543	0,5	-0,235
2527,151	1,5	-0,002
2676,284	-3	-2,164
2680,874	0	-0,609
2685,475	1,5	-0,004
2690,071	0	-0,892
2694,667	-3	-2,474
2699,269	-9	-3,483
2703,87	-9	-3,208
2708,478	-1,5	-1,619
2785,382	-5	-2,57
2789,978	-0,5	-1,101
2794,585	1,5	-0,033
2799,187	1,5	-0,1
2803,783	-1,5	-1,667
2808,39	-6,5	-3,286
2812,98	-9	-3,498
2817,582	-4,5	-2,442
2822,178	0	-0,812
2826,773	1,5	-0,012
2831,381	0	-0,68
2835,983	-2,5	-2,36
2840,585	-8,5	-3,475
2845,18	-8,5	-3,23
2849,782	-1,5	-1,621
2854,384	1	-0,078
2858,98	1,5	-0,004
2863,587	-1,5	-1,77
2868,183	-6	-3,357
2872,779	-9	-3,499
2877,387	-2,5	-2,084
2881,988	0	-0,351
2886,59	1,5	-0,002
2891,192	-0,5	-1,035
2895,794	-3,5	-2,723
2900,401	-8,5	-3,491
2905,009	-6	-2,767
2909,611	0	-1,028
2914,218	1,5	-0,019
2918,82	1,5	-0,408
2923,422	-1,5	-2,073
2928,012	-7	-3,411
2932,613	-8	-3,499
2937,215	-2,5	-2,076
2941,817	0	-0,455
2946,419	1,5	-0,004
2951,008	-0,5	-0,912
2955,61	-3	-2,509
2960,206	-7,5	-3,471
2964,808	-8	-3,389
2969,409	-2	-1,839
2974,017	0	-0,342
2978,613	1,5	-0,003
2983,22	0	-0,862
2987,822	-2,5	-2,416
2992,412	-7,5	-3,48
2997,02	-7	-3,094
3037,733	-3	-2,304
3042,341	0	-0,678
3046,943	1,5	-0,004
3051,545	0	-1
3056,134	-3	-2,588
3060,73	-7	-3,486
3065,332	-6	-3,052
3069,934	-0,5	-1,275
3110,671	0	-0,532
3115,267	2	-0,003
3119,881	0	-1,012
3124,482	-2,5	-2,691
3129,084	-6	-3,493
3133,692	-3	-2,676
3138,288	0	-1,052
3142,895	1,5	-0,019
3147,497	1	-0,384
3152,099	-1	-1,985
3156,707	-4,5	-3,407
3161,308	-5,5	-3,499
3165,904	-1	-1,988
3170,506	0	-0,355
3175,107	1,5	-0,002
3179,703	0	-1,065
3217,945	1,5	-0,001