File: Cycling_tests/_60perc/_4gap/entrada/_4.txt
Time (s)	Load (N)	Displacement (mm)
72,252	-9	-2,251
80,676	-7	-1,892
89,117	-4,5	-1,495
97,553	-3	-1,225
105,977	-1,5	-0,738
114,418	0	-0,201
122,835	1	-0,055
131,253	1	-0,013
139,676	1	-0,001
148,112	1	0
156,559	1	-0,228
165,019	0	-0,632
173,448	-2	-1,144
254,3	-10,5	-2,761
262,759	-7,5	-2,339
271,219	-5	-1,874
279,66	-3	-1,414
288,108	-0,5	-0,69
296,555	-0,5	-0,568
305,015	0	-0,359
313,468	-0,5	-0,704
321,928	-2,5	-1,32
330,393	-4	-1,712
338,853	-5,5	-2,014
347,324	-4,5	-1,785
355,778	-4,5	-1,793
472,993	-2,5	-1,653
481,459	-3,5	-1,934
489,93	-6,5	-2,783
498,396	-10	-3,296
506,855	-9,5	-3,257
515,297	-10,5	-3,358
523,744	-10,5	-3,39
532,216	-11	-3,404
540,663	-9	-3,187
549,123	-10,5	-3,4
557,564	-10	-3,351
566,006	-9	-3,22
574,459	-8	-3,062
582,889	-5,5	-2,573
591,354	-4	-2,222
599,802	-3	-1,745
608,255	-2,5	-1,563
725,297	-10	-3,394
733,744	-9,5	-3,363
742,186	-9,5	-3,378
750,621	-8,5	-3,241
759,069	-6,5	-2,948
767,522	-5	-2,511
775,976	-4	-2,408
784,429	-3	-2,019
792,871	-2,5	-1,884
801,312	-2,5	-1,86
809,754	-2,5	-1,767
818,177	-1,5	-1,328
826,619	-1	-1,076
835,054	-0,5	-0,793
843,484	1	-0,346
851,931	1	-0,412
860,349	1,5	-0,004
868,796	1,5	-0,001
877,244	1,5	-0,004
885,674	1,5	-0,018
894,115	1	-0,095
902,569	0	-0,395
911,004	-0,5	-0,694
919,452	-1	-1,028
927,893	-3	-1,727
936,335	-5,5	-2,357
944,77	-8,5	-2,869
953,206	-11	-3,316
961,659	-11	-3,498
970,113	-10,5	-3,49
1123,182	-4	-1,994
1131,617	-4,5	-2,138
1140,047	-5,5	-2,35
1148,489	-6	-2,405
1156,918	-6	-2,404
1165,348	-7	-2,6
1173,783	-7	-2,536
1182,225	-6	-2,359
1190,654	-8	-2,825
1199,096	-8	-2,79
1207,531	-10	-3,148
1215,961	-10,5	-3,5
1224,39	-10,5	-3,498
1232,82	-10,5	-3,495
1241,261	-10,5	-3,491
1249,697	-10	-3,457
1258,138	-8	-3,323
1266,568	-5	-2,692
1275,003	-3,5	-2,24
1283,433	-2,5	-1,773
1291,856	-1	-1,286
1300,28	0	-0,677
1308,703	1	-0,339
1317,139	1,5	-0,175
1325,58	1,5	-0,001
1334,004	1,5	-0,005
1342,451	1,5	-0,008
1350,887	1,5	-0,02
1359,316	1	-0,064
1367,746	0	-0,236
1376,176	-0,5	-0,685
1384,605	-1	-1,179
1393,035	-1,5	-1,359
1401,482	-3	-1,921
1409,906	-5	-2,3
1418,329	-8	-2,797
1426,771	-10	-3,196
1435,206	-10,5	-3,499
1443,642	-10,5	-3,498
1452,065	-10	-3,487
1460,507	-9	-3,412
1468,936	-6	-2,971
1477,354	-3,5	-2,173
1485,783	-1,5	-1,42
1494,225	0	-0,687
1502,66	1,5	0
1511,102	1,5	-0,002
1519,537	1,5	-0,009
1528,015	1,5	-0,043
1536,45	0	-0,339
1544,892	0	-0,756
1553,321	-1	-1,144
1561,757	-1	-1,34
1570,198	-2,5	-1,667
1578,628	-3	-2,033
1587,069	-6	-2,626
1595,511	-9,5	-3,102
1603,94	-10	-3,499
1612,376	-10	-3,497
1620,818	-10	-3,49
1629,247	-9,5	-3,451
1637,665	-8	-3,322
1646,094	-6	-3,052
1654,524	-5	-2,792
1662,953	-3	-2,267
1671,383	-2,5	-1,875
1679,812	-1,5	-1,413
1688,248	-0,5	-0,972
1696,671	0	-0,656
1705,107	1	-0,478
1713,53	1,5	-0,036
1721,966	1,5	-0,002
1730,407	1,5	-0,009
1738,849	1,5	-0,026
1747,284	1	-0,053
1755,708	0,5	-0,114
1764,137	0	-0,359
1772,573	0	-0,604
1781,002	-0,5	-0,954
1789,45	-1	-1,149
1797,885	-1,5	-1,479
1806,309	-3,5	-1,993
1814,744	-5	-2,323
1823,18	-6	-2,605
1831,61	-9,5	-3,131
1840,039	-9,5	-3,402
1848,475	-10	-3,489
1856,904	-10	-3,498
1865,328	-9,5	-3,498
1873,763	-10	-3,495
1882,187	-9,5	-3,488
1890,616	-9,5	-3,472
1899,034	-8,5	-3,405
1907,469	-6,5	-3,126
1915,905	-4,5	-2,785
1924,328	-3,5	-2,373
1932,758	-2,5	-2,018
1941,187	-2	-1,754
1949,617	-1,5	-1,462
1958,064	-1	-1,31
1966,5	-0,5	-0,968
1974,923	0	-0,604
1983,359	1,5	-0,358
2027,93	1,5	-0,031
2036,36	1,5	-0,002
2044,795	1,5	-0,006
2053,231	1,5	-0,02
2061,666	1,5	-0,064
2070,096	0,5	-0,175
2078,537	0	-0,525
2086,979	0	-0,847
2095,414	-1	-1,215
2103,838	-1,5	-1,477
2112,267	-3	-1,843
2120,697	-4,5	-2,235
2129,126	-6	-2,649
2137,562	-8,5	-2,99
2145,998	-9,5	-3,456
2154,421	-9,5	-3,499
2162,851	-9,5	-3,497
2171,286	-9	-3,494
2179,716	-9	-3,471
2188,145	-7,5	-3,379
2196,581	-5,5	-3,116
2205,01	-4,5	-2,743
2213,422	-2,5	-2,219
2221,851	-2	-1,944
2230,281	-2,5	-2,02
2238,704	-1,5	-1,752
2247,14	-1	-1,32
2255,563	-0,5	-1,042
2263,993	-0,5	-0,947
2272,416	0	-0,62
2280,846	1,5	-0,002
2289,275	1,5	-0,028
2297,705	1	-0,079
2306,134	0,5	-0,117
2314,552	0	-0,612
2322,987	0	-0,698
2331,423	0	-0,816
2339,852	-0,5	-0,84
2348,276	0	-0,795
2356,699	-0,5	-0,894
2365,129	-0,5	-1,084
2373,552	-1	-1,144
2381,994	-1,5	-1,589
2390,43	-1,5	-1,674
2398,865	-3,5	-2,233
2407,295	-3,5	-2,311
2415,73	-5	-2,483
2424,16	-5	-2,599
2432,601	-6,5	-2,862
2441,043	-8	-3,153
2449,478	-8,5	-3,323
2457,902	-8,5	-3,414
2502,467	-8,5	-3,372
2510,909	-8,5	-3,486
2519,332	-8,5	-3,499
2527,762	-8,5	-3,498
2536,197	-8,5	-3,497
2544,633	-8,5	-3,495
2553,062	-8,5	-3,491
2561,486	-8,5	-3,481
2569,921	-8	-3,461
2578,357	-6,5	-3,374
2586,786	-6	-3,303
2595,228	-6	-3,245
2603,657	-5	-3,146
2612,099	-5	-3,111
2620,522	-4,5	-2,911
2628,946	-3,5	-2,633
2637,369	-2	-2,115
2681,929	-1	-1,405
2690,358	-0,5	-1,061
2698,788	0	-0,642
2707,217	1	-0,317
2715,653	1,5	-0,071
2724,076	1,5	-0,001
2732,512	1,5	-0,002
2740,947	1,5	-0,009
2785,495	1,5	-0,007
2793,912	1,5	-0,016
2802,342	1	-0,066
2810,771	0	-0,239
2819,201	0	-0,816
2827,625	-0,5	-1,265
2836,048	-1	-1,604
2844,472	-1	-1,711
2852,901	-2,5	-2,003
2861,331	-3	-2,396
2869,76	-4,5	-2,73
2878,178	-6,5	-3,194
2886,613	-7,5	-3,499
2895,043	-7	-3,493
2903,472	-6,5	-3,474
2911,902	-6	-3,419
2920,331	-4,5	-3,199
2928,761	-3	-2,882
2937,202	-2,5	-2,518
2945,632	-2	-2,201
2954,061	-1	-1,578
2962,497	0	-0,941
2970,944	0	-0,68
2979,38	1,5	0
2987,809	1,5	-0,003
2996,257	1,5	-0,008
3004,692	1,5	-0,019
3013,116	1	-0,136
3021,545	0	-0,711
3029,981	0	-1,148
3038,41	-0,5	-1,716
3046,84	-1,5	-2,109
3055,264	-3,5	-2,775
3063,693	-5	-3,12
3072,129	-5,5	-3,491
3080,564	-5	-3,499
3088,988	-5	-3,496
3097,411	-5	-3,482
3105,847	-4,5	-3,428
3114,276	-4	-3,282
3122,706	-2,5	-2,919
3131,141	-2	-2,477
3139,577	-2	-2,375
3147,994	-1,5	-2,114
3156,418	-1	-1,814
3164,853	-0,5	-1,457
3173,289	-1	-1,424
3181,454	1,5	-0,001