File: Cycling_tests/_60perc/_4gap/entrada/_5.txt
Time (s)	Load (N)	Displacement (mm)
0	0	-0,03
10,678	0,5	0
21,196	1	-0,004
31,731	1	-0,018
42,272	0	-0,149
52,808	-1	-0,627
63,355	-4	-1,396
73,903	-6,5	-1,991
84,456	-10,5	-2,561
95,022	-15	-3,5
105,593	-15	-3,496
116,134	-14,5	-3,471
126,718	-13,5	-3,421
137,283	-10,5	-3,106
184,062	-5	-2,081
194,64	-3	-1,434
205,235	-1,5	-1,015
215,8	1,5	-0,052
226,36	1,5	-0,008
236,949	0	-0,211
247,539	-1,5	-1,024
258,134	-5	-1,858
268,717	-10,5	-2,719
279,337	-13,5	-3,259
289,92	-13,5	-3,498
300,492	-13	-3,47
311,081	-10	-3,253
321,676	-6	-2,475
332,266	-3	-1,665
342,855	-1	-0,934
353,445	1,5	0
364,046	1,5	-0,017
374,634	0	-0,201
385,225	-2,5	-1,403
395,796	-8	-2,462
406,398	-13	-3,413
416,975	-13	-3,496
427,558	-11,5	-3,419
438,142	-7	-2,736
448,695	-3,5	-1,985
459,273	-2	-1,333
469,838	-0,5	-0,813
480,439	1	-0,274
491,017	1,5	-0,001
501,6	1,5	-0,005
512,172	1	-0,115
522,749	-1	-0,919
533,332	-3	-1,528
543,904	-5,5	-2,236
554,481	-10	-2,856
565,058	-12,5	-3,499
575,63	-12,5	-3,496
586,189	-12	-3,459
596,755	-7,5	-2,878
607,332	-4,5	-2,18
617,915	-2	-1,187
628,481	1,5	-0,058
639,064	1,5	-0,004
649,636	1	-0,104
660,201	0	-0,716
670,784	-3	-1,485
681,374	-6	-2,238
691,945	-10	-2,888
702,511	-12	-3,499
713,064	-12,5	-3,495
723,629	-11	-3,43
734,201	-6,5	-2,978
744,772	-4	-2,268
755,344	-2,5	-1,634
765,915	-0,5	-0,877
776,474	1,5	-0,058
787,046	1,5	-0,006
797,599	1,5	-0,094
808,171	0	-0,648
818,748	-1,5	-1,251
829,313	-4,5	-2,08
839,873	-11	-3,051
850,438	-12	-3,499
861,004	-11,5	-3,49
871,593	-11	-3,454
882,158	-8	-3,144
892,73	-5	-2,696
903,295	-3,5	-2,069
913,873	-2	-1,422
924,426	-1	-1,028
935,003	0	-0,631
945,569	1,5	-0,261
956,128	1,5	0
966,7	2	-0,002
977,265	1,5	-0,007
987,83	1,5	-0,013
998,408	1,5	-0,02
1008,961	1,5	-0,056
1019,527	0	-0,415
1030,092	-0,5	-0,995
1040,651	-1	-1,238
1051,211	-1,5	-1,448
1061,776	-3	-1,697
1072,342	-3	-1,921
1082,895	-4,5	-2,194
1093,454	-6,5	-2,547
1104,026	-7	-2,68
1114,585	-8,5	-2,908
1125,144	-9,5	-3,001
1135,698	-10,5	-3,25
1146,263	-11	-3,388
1156,811	-11	-3,499
1167,364	-11	-3,499
1177,935	-11	-3,499
1188,501	-11	-3,498
1199,072	-11	-3,498
1209,626	-11	-3,495
1220,173	-11	-3,475
1230,726	-10	-3,447
1241,292	-9,5	-3,38
1251,863	-8	-3,29
1262,471	-8,5	-3,302
1273,024	-6	-3,015
1283,577	-5	-2,7
1294,137	-4	-2,495
1304,696	-3	-2,189
1315,268	-2,5	-1,895
1325,827	-2,5	-1,69
1336,392	-1,5	-1,382
1346,958	-1	-1,192
1357,535	-0,5	-0,971
1368,083	0	-0,577
1378,648	1,5	-0,262
1389,201	1,5	0
1399,761	1,5	-0,004
1410,332	1,5	-0,013
1420,88	1,5	-0,049
1431,433	1	-0,1
1441,992	0,5	-0,179
1452,552	0	-0,341
1463,105	0	-0,524
1473,653	0	-0,735
1484,212	0	-0,696
1494,771	0	-0,67
1505,331	0	-0,606
1515,896	0	-0,685
1526,45	-1	-1,192
1537,009	-1	-1,227
1547,562	-1,5	-1,286
1558,116	-1,5	-1,516
1568,675	-3	-2,003
1579,241	-5,5	-2,481
1589,794	-8,5	-2,93
1600,353	-10,5	-3,194
1610,901	-10,5	-3,5
1621,448	-10,5	-3,497
1632,02	-10,5	-3,494
1642,579	-10,5	-3,464
1653,126	-9	-3,365
1663,692	-5,5	-2,81
1674,263	-3,5	-2,388
1684,811	-3	-2,15
1695,382	-2,5	-2,001
1705,935	-1,5	-1,617
1716,489	-0,5	-1,009
1727,048	1	-0,405
1737,608	1,5	-0,001
1748,167	1,5	-0,016
1758,726	1	-0,093
1769,28	0	-0,516
1779,851	-0,5	-0,907
1790,416	-1,5	-1,453
1800,976	-3	-1,963
1811,535	-6	-2,604
1822,089	-10,5	-3,176
1832,636	-10,5	-3,499
1843,183	-10,5	-3,494
1853,743	-9,5	-3,436
1864,404	-8,5	-3,395
1874,97	-6	-3,051
1885,529	-3,5	-2,462
1896,088	-2	-1,774
1906,648	-1	-1,063
1917,195	1	-0,388
1927,761	1,5	-0,022
1938,344	2	-0,001
1948,903	2	-0,007
1959,457	1	-0,078
1970,016	0	-0,572
1980,576	-0,5	-1,095
1991,135	-2	-1,805
2001,706	-4,5	-2,335
2012,254	-9	-3,015
2022,813	-10	-3,499
2033,367	-10,5	-3,493
2043,926	-9,5	-3,426
2054,491	-5	-2,846
2065,051	-3,5	-2,354
2075,61	-2	-1,861
2086,176	-1,5	-1,336
2096,717	0	-0,69
2107,27	2	-0,022
2117,842	1,5	-0,005
2128,401	1,5	-0,032
2138,967	1	-0,119
2149,526	0	-0,475
2160,097	0	-0,786
2170,645	-1	-1,259
2181,198	-1,5	-1,562
2191,752	-3	-2,058
2202,299	-5,5	-2,541
2212,852	-8,5	-2,966
2223,4	-10,5	-3,462
2233,941	-10,5	-3,499
2244,501	-10,5	-3,497
2255,048	-10	-3,49
2265,595	-10	-3,472
2276,155	-8,5	-3,407
2286,726	-6,5	-3,189
2297,273	-4,5	-2,801
2307,827	-3	-2,392
2318,392	-2	-1,876
2328,946	-1,5	-1,397
2339,499	0	-0,874
2350,082	0	-0,602
2360,63	1,5	-0,281
2371,183	1,5	-0,001
2381,725	2	-0,008
2392,278	1,5	-0,058
2402,825	0,5	-0,403
2413,379	0	-0,78
2423,944	-1	-1,249
2434,51	-2,5	-1,844
2445,063	-5,5	-2,654
2455,604	-9,5	-3,471
2466,176	-9,5	-3,498
2476,729	-9	-3,478
2487,301	-6,5	-3,308
2497,848	-3	-2,49
2508,401	-1	-1,574
2518,973	0	-0,812
2529,532	1,5	-0,122
2540,08	2	-0,003
2550,633	1,5	-0,026
2561,192	1	-0,185
2571,728	0	-0,613
2582,287	-1	-1,587
2592,847	-4	-2,452
2603,406	-9	-3,268
2613,953	-9,5	-3,499
2624,519	-9	-3,487
2635,072	-6	-3,204
2645,614	-3	-2,457
2656,179	-1,5	-1,634
2666,75	-0,5	-1,015
2677,304	1,5	-0,039
2687,851	2	-0,004
2698,417	1,5	-0,022
2708,976	1	-0,08
2719,529	0	-0,692
2730,089	-0,5	-1,302
2740,636	-2,5	-1,924
2751,19	-5,5	-2,568
2761,737	-8,5	-3,061
2772,302	-9,5	-3,5
2782,862	-9,5	-3,498
2793,409	-9	-3,493
2803,963	-9	-3,473
2814,522	-7,5	-3,389
2825,069	-5,5	-3,108
2835,623	-3	-2,56
2846,17	-2	-2,061
2856,724	-1,5	-1,645
2867,283	-1	-1,201
2877,842	0,5	-0,671
2888,396	1,5	-0,17
2898,943	1,5	-0,002
2909,491	1,5	-0,012
2920,044	1,5	-0,07
2930,609	0,5	-0,325
2941,157	-0,5	-1,187
2951,716	-1,5	-1,749
2962,263	-4,5	-2,63
2972,835	-8	-3,063
2983,388	-9	-3,499
2993,936	-9	-3,492
3004,485	-7,5	-3,42
3015,03	-4,5	-2,971
3025,566	-2,5	-2,26
3036,131	-1,5	-1,647
3046,691	-0,5	-1,026
3057,244	1	-0,381
3067,833	2	0
3078,375	2	-0,002
3088,934	1,5	-0,024
3099,476	0,5	-0,486
3110,023	-0,5	-1,427
3120,57	-3	-2,453
3131,118	-6,5	-3,187
3141,665	-7	-3,499
3152,207	-7	-3,496
3162,754	-7	-3,489
3173,301	-6	-3,445
3183,843	-4,5	-3,233
3194,384	-2,5	-2,632
3202,358	2	-0,001