File: ensaios_Ciclicos/_newS/_2G20/entrada/_2.txt
Time (s)	Load (N)	Displacement (mm)
0	-0,16	-0,035
10,757	2,14	-0,114
21,424	2,82	-0,011
32,092	3,28	-0,001
42,766	3,66	-0,001
53,432	3,94	-0,002
64,136	4,2	-0,004
74,815	4,36	-0,008
85,489	4,24	-0,026
96,174	3,14	-0,094
106,871	1,26	-0,251
117,563	-0,72	-0,49
128,248	-4,2	-1,001
138,939	-7,1	-1,261
149,649	-8,06	-1,426
160,352	-10,26	-1,667
171,068	-14,4	-1,937
181,771	-14,66	-2,144
192,48	-19,42	-2,573
203,202	-24,4	-2,963
213,923	-25,7	-3,205
224,639	-26,02	-3,5
235,348	-26,02	-3,499
246,051	-26,04	-3,499
256,761	-26,06	-3,496
267,482	-25,62	-3,481
278,209	-24,98	-3,466
288,913	-23,4	-3,414
299,646	-23,56	-3,404
310,35	-21,28	-3,306
321,071	-19,84	-3,262
331,792	-18,18	-3,113
342,52	-18,8	-3,083
353,241	-17,22	-2,966
363,975	-16,28	-2,842
374,702	-12,96	-2,691
385,435	-14,36	-2,687
396,175	-13,64	-2,647
406,896	-13	-2,502
417,629	-11,06	-2,321
428,357	-10,68	-2,319
439,09	-7,98	-2,164
449,818	-8,72	-2,126
460,557	-7,76	-2,011
471,284	-5,94	-1,839
482,024	-3,9	-1,582
492,787	-4,04	-1,526
503,521	-2,3	-1,408
514,248	-1,58	-1,272
524,975	-0,98	-1,174
535,709	1,48	-0,898
546,454	2,88	-0,788
557,193	3,34	-0,739
567,921	3,98	-0,586
578,648	4,68	-0,572
589,388	4,3	-0,592
600,127	5,82	-0,458
610,86	6,78	-0,136
621,612	6,78	-0,264
632,339	6,82	-0,165
643,049	6,88	-0,001
653,794	6,94	-0,001
664,515	6,96	-0,001
675,243	7	-0,002
685,994	6,98	-0,001
696,722	7,02	-0,001
707,455	7,02	-0,001
718,206	7	-0,011
728,952	7,02	0
739,685	7,08	-0,001
750,425	7,14	-0,002
761,146	7,18	-0,004
771,891	7,12	-0,013
782,619	6,66	-0,04
793,358	6,02	-0,066
804,091	4,68	-0,157
814,825	2,78	-0,381
825,576	0,88	-0,504
836,328	2,48	-0,402
847,037	-1,56	-0,863
857,8	-1,9	-0,893
868,54	-4,4	-1,186
879,267	-6,46	-1,488
890,006	-9,46	-1,834
900,752	-10,66	-1,913
911,491	-11,04	-1,92
922,231	-11,44	-1,988
932,964	-13,62	-2,224
943,697	-16,38	-2,388
954,455	-16,36	-2,426
965,176	-16,88	-2,575
975,904	-18,68	-2,703
986,655	-18,14	-2,676
997,376	-19,24	-2,756
1008,116	-19,72	-2,886
1018,849	-20,98	-2,817
1029,565	-20,52	-2,911
1040,292	-23,68	-3,203
1051,019	-23,62	-3,5
1061,759	-23,58	-3,496
1072,486	-23,52	-3,499
1083,22	-23,48	-3,499
1093,947	-23,46	-3,499
1104,662	-23,44	-3,496
1115,384	-23,32	-3,492
1126,105	-23,28	-3,49
1136,844	-23,12	-3,486
1147,584	-23,16	-3,482
1158,341	-23,1	-3,485
1169,081	-22,86	-3,48
1179,826	-22,94	-3,481
1190,583	-22,9	-3,481
1201,341	-23	-3,482
1212,104	-23,06	-3,492
1222,838	-22,88	-3,486
1233,571	-22,78	-3,483
1244,322	-22,78	-3,487
1255,05	-22,46	-3,484
1265,807	-22,74	-3,496
1276,54	-22,76	-3,498
1287,28	-22,78	-3,498
1297,995	-22,8	-3,498
1308,747	-22,54	-3,499
1319,48	-22,46	-3,5
1330,213	-22,42	-3,498
1340,959	-22,4	-3,4
1351,698	-22,36	-3,382
1362,413	-22,32	-3,394
1373,141	-22,2	-3,331
1383,862	-22,22	-3,452
1394,62	-22,18	-3,481
1405,371	-22,1	-3,5
1416,116	-22,08	-3,499
1426,844	-22,06	-3,499
1437,589	-22,02	-3,499
1448,317	-22,02	-3,498
1459,05	-21,98	-3,498
1469,777	-21,88	-3,498
1480,511	-21,72	-3,497
1491,256	-21,68	-3,497
1501,972	-21,6	-3,494
1512,693	-21,5	-3,494
1523,438	-21,34	-3,489
1534,16	-20,92	-3,481
1544,917	-21,02	-3,48
1555,644	-20,7	-3,465
1566,384	-20,06	-3,448
1577,129	-19,54	-3,428
1587,863	-19,08	-3,415
1598,6	-18,3	-3,39
1609,353	-17,36	-3,392
1620,087	-18,9	-3,416
1630,82	-20,3	-3,47
1641,56	-20,76	-3,495
1652,311	-20,72	-3,499
1663,032	-20,64	-3,5
1673,772	-20,56	-3,471
1684,523	-18,7	-3,008
1695,25	-15,16	-2,724
1705,996	-9,98	-2,222
1716,717	-10,76	-2,276
1727,445	-10,26	-2,162
1738,202	-7,88	-1,955
1748,929	-5,12	-1,657
1759,663	-3,56	-1,348
1770,408	0,04	-0,952
1781,136	2,16	-0,568
1791,863	4,76	-0,225
1802,584	6,3	-0,124
1813,318	7,4	-0,034
1824,033	7,86	-0,013
1834,767	7,94	-0,004
1845,494	7,94	-0,004
1856,221	7,94	-0,007
1866,955	7,92	-0,006
1877,7	7,88	-0,012
1888,433	7,86	-0,01
1899,161	7,82	-0,017
1909,894	7,64	-0,022
1920,64	7,58	-0,028
1931,379	7,86	-0,013
1942,124	7,86	-0,01
1952,876	7,86	-0,014
1963,579	7,54	-0,03
1974,307	7,46	-0,035
1985,052	7,7	-0,023
1995,797	7,42	-0,04
2006,543	6,86	-0,062
2017,27	6,2	-0,103
2028,016	7,1	-0,059
2038,749	6,6	-0,086
2049,476	6,48	-0,086
2060,222	7,54	-0,03
2070,955	7,8	-0,014
2081,67	7,92	-0,004
2092,404	7,92	-0,003
2103,137	7,9	-0,002
2113,865	7,86	-0,001
2124,586	7,84	-0,125
2135,307	7,5	-0,261
2146,035	7,06	-0,43
2156,762	5,38	-0,534
2167,501	4,62	-0,682
2178,223	2,94	-0,877
2188,95	1,42	-1,071
2199,672	2,18	-1,133
2210,399	-0,88	-1,422
2221,138	-2,84	-1,702
2231,866	-2,36	-1,656
2242,581	-0,9	-1,472
2253,297	-1,84	-1,552
2264,042	-1,52	-1,571
2274,775	-3,06	-1,752
2285,503	-3,02	-1,838
2296,236	-3,68	-1,881
2306,982	-5	-2,086
2317,715	-6,12	-2,267
2328,442	-5,28	-2,194
2339,17	-6,24	-2,26
2349,885	-5,72	-2,239
2360,624	-6,64	-2,42
2371,37	-7,62	-2,517
2382,085	-6,82	-2,47
2392,825	-9,46	-2,723
2403,564	-10,3	-3,03
2414,291	-13,96	-3,312
2425,007	-16,66	-3,444
2435,74	-16,94	-3,469
2446,456	-16,84	-3,465
2457,201	-17,02	-3,481
2467,94	-17,36	-3,495
2478,68	-17,26	-3,499
2489,413	-17,1	-3,421
2500,152	-14,46	-2,957
2510,898	-11,32	-2,71
2521,613	-12,98	-2,752
2532,341	-9,24	-2,425
2543,068	-7,78	-2,139
2553,825	-3,5	-1,589
2564,553	-2,18	-1,364
2575,268	-0,42	-1,093
2585,996	2,02	-0,629
2596,735	3,62	-0,39
2607,462	5,48	-0,147
2618,22	7,08	-0,054
2628,941	7,24	-0,042
2639,692	7,72	-0,013
2650,438	7,8	-0,004
2661,171	7,78	-0,002
2671,905	7,76	-0,001
2682,62	7,76	-0,001
2693,353	7,72	-0,002
2704,081	7,72	0
2714,802	7,7	-0,07
2725,53	7,26	-0,29
2736,245	5,8	-0,501
2746,966	6,18	-0,457
2757,682	4,94	-0,596
2768,409	2,6	-0,924
2779,125	2,26	-0,95
2789,852	0,7	-1,234
2800,579	0,3	-1,295
2811,319	-0,48	-1,426
2822,04	-0,2	-1,372
2832,779	-1,08	-1,552
2843,525	-1,6	-1,622
2854,234	-0,76	-1,508
2864,95	0,46	-1,322
2875,695	-0,74	-1,468
2886,41	-1,82	-1,708
2897,138	-2,08	-1,685
2907,865	-2,9	-1,878
2918,593	-2,64	-1,858
2929,326	-2,86	-1,933
2940,053	-3,48	-1,983
2950,781	-2,56	-1,869
2961,514	-2,3	-1,773
2972,242	-1,48	-1,672
2982,981	-1,22	-1,593
2993,72	-1,24	-1,64
3004,436	-1,16	-1,647
3015,163	0,68	-1,297
3025,92	-0,52	-1,513
3036,66	-1,22	-1,622
3047,393	-1,96	-1,73
3058,135	-2,48	-1,835
3068,878	-2,74	-1,911
3079,599	-2,2	-1,798
3090,333	-1,72	-1,703
3101,06	-1,4	-1,61
3111,788	-0,12	-1,388
3122,515	1,34	-1,183
3133,254	1,88	-1,128
3144,006	0,5	-1,324
3154,733	1	-1,258
3165,46	0,48	-1,297
3176,458	-6,84	-2,623
3187,245	-9,32	-3,07
3198,093	-12,8	-3,421
3208,862	-14,58	-3,462
3218,821	7,58	0