File: ensaios_Ciclicos/_newS/_2G20/entrada/_3.txt
Time (s)	Load (N)	Displacement (mm)
0	-0,2	-0,022
10,647	0,1	-0,432
21,261	1,56	-0,019
31,874	1,8	-0,002
42,482	1,94	-0,005
53,107	1,74	-0,024
63,726	1,94	-0,022
74,364	1,94	-0,025
84,995	1,64	-0,061
95,602	-1,12	-0,284
106,222	-3,38	-0,634
116,829	-6,4	-0,981
127,455	-8,3	-1,265
138,068	-11,1	-1,562
148,675	-16,06	-2,133
159,295	-18,96	-2,384
169,914	-19,7	-2,539
180,558	-21,96	-2,729
191,189	-23,56	-2,952
201,826	-26,96	-3,118
212,452	-26,88	-3,5
223,065	-26,84	-3,499
233,685	-26,72	-3,417
244,322	-26,62	-3,342
254,965	-26,56	-3,499
265,621	-26,48	-3,499
276,258	-26,38	-3,495
286,902	-25,36	-3,475
297,569	-23,82	-3,398
308,212	-15,96	-2,844
318,844	-11,44	-2,213
329,481	-11,46	-2,206
340,142	-12,78	-2,358
350,804	-12,28	-2,326
361,453	-9,24	-2,072
372,115	-8,46	-1,973
382,752	-6,92	-1,744
393,413	-5,56	-1,548
404,081	-5,5	-1,474
414,724	-4,32	-1,259
425,38	-3,84	-1,358
436,029	-3,48	-1,156
446,696	-3,46	-1,15
457,34	-2,62	-0,988
468,007	1,18	-0,585
478,669	2,44	-0,416
489,348	3,28	-0,195
500,027	3,3	-0,032
510,689	3,32	0
521,35	3,34	0
532,018	3,34	-0,019
542,697	3,36	-0,246
553,352	1,84	-0,433
564,026	-0,9	-0,776
574,675	-1,22	-0,894
585,355	-6,38	-1,752
596,01	-9,56	-2,181
606,689	-14,78	-2,789
617,345	-18,14	-3,111
628,012	-16,72	-3,031
638,685	-23,1	-3,438
649,383	-24,2	-3,482
660,062	-24,4	-3,497
670,76	-24,26	-3,321
681,427	-22,28	-2,943
692,1	-18,26	-2,668
702,768	-15,32	-2,366
713,447	-11,42	-1,885
724,121	-5,9	-1,355
734,788	-2,78	-0,803
745,473	-0,1	-0,284
756,159	2,74	-0,07
766,832	3,46	-0,018
777,517	3,66	-0,003
788,167	3,66	-0,001
798,846	3,62	-0,091
809,526	1,12	-0,541
820,205	0,64	-0,635
830,872	-0,6	-0,827
841,54	-2,48	-1,125
852,213	-3,9	-1,389
862,905	-3,86	-1,434
873,602	-5,8	-1,781
884,269	-7,62	-2,01
894,937	-9,12	-2,216
905,61	-11	-2,523
916,314	-16,46	-3,059
926,999	-18,46	-3,284
937,672	-20,5	-3,386
948,334	-22,44	-3,458
959,007	-23,14	-3,486
969,68	-23,26	-3,492
980,354	-23,28	-3,498
991,045	-23,22	-3,5
1001,719	-23,2	-3,311
1012,398	-20,36	-2,964
1023,059	-16,02	-2,558
1033,727	-13,5	-2,276
1044,388	-10,76	-1,97
1055,068	-8,4	-1,767
1065,753	-6,22	-1,438
1076,432	-4,6	-1,169
1087,1	-3,54	-1,059
1097,779	-2,94	-0,945
1108,465	-2,32	-0,772
1119,126	-0,8	-0,478
1129,799	0,56	-0,261
1140,461	0,18	-0,302
1151,122	0,68	-0,229
1161,784	1,22	-0,144
1172,457	2,82	-0,082
1183,142	3,48	-0,034
1193,816	3,88	-0,015
1204,507	4,04	-0,005
1215,18	4,04	-0,003
1225,872	4,02	0
1236,551	3,48	-0,369
1247,231	-0,42	-0,817
1257,904	-2,04	-1,141
1268,565	-2,74	-1,267
1279,251	-3,6	-1,54
1289,936	-4	-1,688
1300,616	-5,12	-1,982
1311,289	-6,38	-2,119
1321,986	-8,46	-2,481
1332,684	-11,08	-2,834
1343,381	-12,1	-3,095
1354,067	-11,08	-3,01
1364,758	-14,36	-3,338
1375,437	-16,24	-3,456
1386,111	-16,14	-3,477
1396,808	-16,3	-3,494
1407,487	-15,88	-3,498
1418,185	-15,58	-3,499
1428,876	-15,42	-3,5
1439,562	-15,32	-3,494
1450,241	-15,2	-3,478
1460,932	-14,58	-3,146
1471,618	-13,24	-2,976
1482,285	-14,84	-3,228
1492,971	-13,72	-3,094
1503,65	-13,24	-3,087
1514,323	-14,22	-3,295
1524,991	-14,06	-3,5
1535,67	-13,84	-3,498
1546,332	-13,52	-3,499
1557,023	-13,24	-3,5
1567,702	-13,08	-3,5
1578,37	-13	-3,499
1589,043	-12,82	-3,499
1599,717	-12,72	-3,499
1610,402	-12,58	-3,5
1621,075	-12,5	-3,5
1631,749	-12,38	-3,449
1642,452	-12,16	-3,203
1653,137	-12,16	-3,372
1663,835	-12,16	-3,494
1674,544	-12,02	-3,283
1685,23	-11,52	-3,07
1695,921	-8,36	-2,839
1706,606	-8,48	-2,808
1717,304	-8,56	-2,817
1727,995	-10,36	-3,107
1738,705	-10,74	-3,073
1749,396	-10,84	-3,166
1760,099	-11,3	-3,5
1770,791	-11,32	-3,498
1781,458	-11,3	-3,497
1792,132	-11,26	-3,496
1802,805	-11,14	-3,489
1813,484	-11,12	-3,495
1824,158	-11,06	-3,498
1834,825	-11,02	-3,496
1845,522	-10,94	-3,493
1856,196	-10,92	-3,495
1866,875	-10,82	-3,489
1877,561	-10,72	-3,49
1888,234	-10,56	-3,484
1898,907	-10,48	-3,484
1909,593	-10,22	-3,471
1920,266	-10,24	-3,47
1930,916	-9,58	-3,441
1941,607	-10,3	-3,486
1952,286	-10,22	-3,485
1962,984	-10,24	-3,488
1973,675	-10,16	-3,491
1984,355	-10,16	-3,496
1995,022	-10,08	-3,497
2005,719	-10	-3,496
2016,399	-9,86	-3,482
2027,078	-9,8	-3,48
2037,763	-9,38	-3,46
2048,449	-8,34	-3,406
2059,11	-6,72	-3,265
2069,808	-7,74	-3,368
2080,481	-6,94	-3,269
2091,172	-6,56	-3,238
2101,84	-4,5	-2,791
2112,543	-4,34	-2,764
2123,241	-4,64	-2,846
2133,92	-3,3	-2,411
2144,587	-2,86	-2,181
2155,273	-2,52	-2,043
2165,958	-2,32	-1,995
2176,668	-1,86	-1,801
2187,353	-1,74	-1,768
2198,038	-1,56	-1,688
2208,736	-1,4	-1,502
2219,409	-1,44	-1,538
2230,094	-1,62	-1,661
2240,768	-1,36	-1,435
2251,435	-1,2	-1,457
2262,133	-1,54	-1,665
2272,806	-2,02	-1,961
2283,479	-2,7	-2,24
2294,153	-2,34	-2,164
2304,832	-2,54	-2,24
2315,512	-2,22	-2,098
2326,191	-2,4	-2,254
2336,87	-2,4	-2,261
2347,544	-2,58	-2,306
2358,223	-2,74	-2,372
2368,891	-2,64	-2,387
2379,564	-3,08	-2,534
2390,267	-3,48	-2,698
2400,941	-2,58	-2,314
2411,614	-2,16	-2,124
2422,3	-1,86	-1,913
2432,985	-1	-1,493
2443,664	-0,86	-1,356
2454,338	-0,1	-0,998
2465,011	0,38	-0,81
2475,69	2,84	-0,401
2486,4	3,56	-0,048
2497,091	3,6	-0,002
2507,789	3,58	-0,005
2518,48	3,4	-0,016
2529,165	3,04	-0,05
2539,845	1,78	-0,18
2550,524	0,82	-0,629
2561,21	0,42	-0,89
2571,907	0,26	-1,018
2582,604	-0,36	-1,473
2593,284	-1,48	-2,057
2603,969	-3,08	-2,55
2614,661	-6,44	-3,167
2625,346	-7,2	-3,499
2636,037	-7,22	-3,496
2646,717	-6,84	-3,463
2657,402	-4,62	-3,258
2668,081	-3,06	-2,791
2678,755	-2,04	-2,284
2689,428	-1,28	-1,815
2700,114	-1,16	-1,633
2710,799	-0,84	-1,41
2721,478	-0,76	-1,3
2732,164	-0,48	-1,204
2742,831	-0,28	-1,033
2753,523	-0,1	-1,063
2764,19	-0,34	-1,047
2774,869	-0,14	-1,032
2785,549	-0,38	-1,028
2796,252	-0,7	-1,337
2806,938	-0,28	-1,229
2817,611	-0,28	-1,095
2828,302	-0,42	-1,14
2838,976	0,3	-0,883
2849,649	-0,16	-1,02
2860,322	0,34	-0,72
2871,002	-0,08	-0,87
2881,693	0,16	-0,831
2892,379	-0,24	-1,154
2903,064	-0,62	-1,351
2913,767	-0,94	-1,653
2924,441	-1,22	-1,891
2935,126	-1,54	-2,161
2945,806	-2,22	-2,615
2956,479	-2,28	-2,618
2967,17	-2,32	-2,711
2977,844	-2,42	-2,805
2988,511	-3,36	-3,203
2999,191	-4,54	-3,39
3009,87	-5,38	-3,45
3020,549	-5,64	-3,466
3031,235	-5,04	-3,41
3041,92	-3,54	-3,283
3052,593	-3,96	-3,272
3063,279	-4,46	-3,36
3073,976	-3,66	-3,271
3084,662	-4,08	-3,352
3095,335	-4,4	-3,376
3106,014	-5,54	-3,47
3116,706	-5,64	-3,475
3127,409	-5,52	-3,487
3138,095	-5,74	-3,493
3148,78	-5,68	-3,487
3159,465	-5,6	-3,476
3170,145	-5,24	-3,456
3180,83	-4,6	-3,42
3191,498	-2,98	-3,186
3201,625	3	0