File: ensaios_Ciclicos/com_TC/entrada/_4.txt
Time (s)	Load (N)	Displacement (mm)
0	0	-0,036
10,672	-4,5	-0,876
21,232	-6,5	-1,102
31,803	-7,5	-1,271
42,405	-13	-1,813
52,994	-16,5	-2,216
63,577	-20,5	-2,641
74,185	-26,5	-3,138
84,786	-30	-3,388
95,394	-32,5	-3,471
105,989	-33	-3,489
116,56	-32,5	-3,493
127,138	-32,5	-3,494
137,823	-32,5	-3,498
148,436	-32,5	-3,5
159,044	-32	-3,334
169,639	-32	-3,259
180,223	-29,5	-3,043
190,812	-25	-2,667
201,455	-20,5	-2,118
212,081	-12,5	-1,62
222,694	-8	-1,225
233,314	-4,5	-0,838
243,927	-1,5	-0,391
254,564	-0,5	-0,302
265,172	-3,5	-0,639
275,785	-1	-0,372
286,399	0,5	-0,157
297,012	2	-0,077
307,637	2,5	-0,047
318,275	3	-0,026
328,9	3,5	-0,008
339,514	3,5	-0,004
350,127	3,5	-0,004
360,77	3,5	-0,002
371,408	3,5	-0,054
382,033	2,5	-0,424
392,665	0	-0,642
403,284	-0,5	-0,663
413,915	-2	-0,861
424,553	-4	-1,104
435,19	-4,5	-1,108
445,851	-5	-1,264
456,495	-5,5	-1,362
467,126	-8	-1,719
477,776	-12,5	-2,146
488,419	-15,5	-2,504
499,044	-19,5	-2,899
509,688	-22,5	-3,21
520,325	-27	-3,432
530,945	-29	-3,485
541,57	-29	-3,497
552,213	-29	-3,5
562,833	-28,5	-3,182
573,44	-29	-3,238
584,066	-28	-3,117
594,691	-23,5	-2,79
605,316	-21,5	-2,58
615,936	-18	-2,272
626,561	-15	-1,999
637,175	-13	-1,789
647,806	-6	-1,278
658,413	-4,5	-0,968
669,039	-3	-0,73
679,664	-1	-0,473
690,278	1	-0,135
700,903	3,5	-0,016
711,528	3,5	-0,002
722,148	4	0
732,839	-2	-0,761
743,458	-5,5	-1,35
754,072	-9,5	-2,022
764,685	-13,5	-2,395
775,305	-19	-2,878
785,924	-23,5	-3,339
796,543	-26	-3,44
807,157	-27,5	-3,487
817,77	-28	-3,497
828,384	-22,5	-2,706
839,015	-6	-1,311
849,628	-1	-0,466
860,242	3	-0,056
870,843	4	-0,012
881,463	4	-0,002
892,076	4	0
902,695	-2,5	-0,946
913,321	-9,5	-2,102
923,934	-25,5	-3,425
934,56	-27	-3,498
945,179	-15	-2,14
955,792	-0,5	-0,448
966,406	4	-0,005
977,037	-1,5	-0,87
987,651	-7	-1,775
998,264	-16,5	-2,766
1008,883	-23	-3,307
1019,491	-25,5	-3,442
1030,098	-27	-3,491
1040,7	-27	-3,498
1051,301	-27	-3,5
1061,908	-27	-3,5
1072,522	-27	-3,305
1083,129	-27	-3,247
1093,748	-22,5	-2,84
1104,344	-23	-2,914
1114,969	-21	-2,709
1125,583	-18	-2,468
1136,19	-14,5	-2,142
1146,791	-12	-1,908
1157,399	-9,5	-1,744
1168,024	-9,5	-1,732
1178,638	-8	-1,613
1189,251	-8,5	-1,693
1199,846	-8	-1,548
1210,478	-4,5	-1,153
1221,079	-3,5	-0,951
1231,687	-4,5	-1,07
1242,288	-2,5	-0,848
1252,901	-2	-0,725
1263,521	-1,5	-0,598
1274,134	-0,5	-0,47
1284,742	-0,5	-0,371
1295,373	0,5	-0,178
1305,98	-0,5	-0,357
1316,588	1	-0,167
1327,195	3,5	-0,035
1337,862	4	-0,001
1348,47	4	-0,237
1359,071	2,5	-0,467
1369,673	1,5	-0,557
1380,286	1,5	-0,558
1390,887	-4	-1,324
1401,483	-5,5	-1,634
1412,084	-6	-1,782
1422,698	-11	-2,347
1433,305	-20	-3,205
1443,93	-22,5	-3,374
1454,526	-25	-3,453
1465,145	-26	-3,488
1475,759	-26	-3,498
1486,366	-25	-3,086
1496,973	-13,5	-2,171
1507,581	-8,5	-1,659
1518,194	-5,5	-1,305
1528,808	-3,5	-0,975
1539,415	-1,5	-0,706
1550,01	0	-0,258
1560,606	0	-0,221
1571,207	2	-0,116
1581,809	3	-0,07
1592,416	3,5	-0,015
1603,023	4	-0,006
1613,625	4	-0,008
1624,238	2,5	-0,076
1634,84	0,5	-0,224
1645,435	-1	-0,659
1656,042	0	-0,332
1666,638	2,5	-0,072
1677,245	2,5	-0,097
1687,865	3,5	-0,034
1698,478	4	-0,006
1709,085	4	-0,002
1719,687	4	-0,001
1730,276	4	0
1740,883	4	-0,001
1751,497	4	-0,127
1762,098	1,5	-0,551
1772,706	-2,5	-1,172
1783,313	-3	-1,296
1793,92	-4	-1,491
1804,522	-3,5	-1,581
1815,129	-4,5	-1,686
1825,737	-5	-1,826
1836,344	-5	-1,819
1846,951	-6	-2,056
1857,559	-11	-2,736
1868,178	-13,5	-3,036
1878,78	-15	-3,275
1889,393	-18	-3,375
1899,988	-19,5	-3,431
1910,602	-19,5	-3,475
1921,197	-19,5	-3,484
1931,871	-19,5	-3,497
1942,478	-19	-3,5
1953,085	-18	-3,408
1963,687	-12	-2,764
1974,3	-13,5	-2,82
1984,896	-11	-2,691
1995,497	-9	-2,484
2006,098	-10	-2,564
2016,7	-8	-2,464
2027,295	-13	-2,867
2037,897	-16,5	-3,123
2048,498	-15	-3,07
2059,099	-16,5	-3,494
2069,707	-17	-3,498
2080,308	-16,5	-3,482
2090,909	-16,5	-3,48
2101,511	-15	-3,453
2112,112	-16	-3,449
2122,714	-15	-3,434
2133,315	-14,5	-3,398
2143,922	-12	-3,306
2154,518	-11,5	-3,252
2165,125	-8	-2,858
2175,733	-5	-2,249
2186,346	-3,5	-1,97
2196,935	-2,5	-1,547
2207,537	-1	-1,02
2218,138	2,5	-0,526
2228,74	4	0
2239,335	4	-0,003
2249,93	4,5	-0,005
2260,532	4,5	-0,002
2271,145	4,5	-0,002
2281,747	4,5	-0,001
2292,348	4,5	-0,001
2302,943	4	-0,001
2313,545	4	-0,001
2324,146	4	-0,006
2334,748	4	-0,023
2345,343	3,5	-0,057
2355,944	2,5	-0,146
2366,546	1,5	-0,208
2377,153	1	-0,501
2387,748	0,5	-0,734
2398,362	0	-1,004
2408,963	-2	-1,764
2419,565	-6	-2,599
2430,166	-12,5	-3,154
2440,78	-12,5	-3,498
2451,369	-13	-3,492
2461,976	-12,5	-3,476
2472,59	-11,5	-3,432
2483,197	-9	-3,348
2493,81	-6	-2,943
2504,412	-4	-2,353
2515,019	-2,5	-1,936
2525,633	-1,5	-1,586
2536,288	-2,5	-1,846
2546,889	-1	-1,323
2557,485	-0,5	-1,091
2568,086	-0,5	-0,948
2578,682	0	-0,922
2589,289	3	-0,468
2599,89	0	-0,756
2610,492	3	-0,425
2621,093	4	0
2631,689	4	-0,016
2642,29	3,5	-0,049
2652,891	3,5	-0,054
2663,487	3,5	-0,042
2674,082	3,5	-0,076
2684,69	3,5	-0,04
2695,291	4	-0,026
2705,886	4	-0,016
2716,488	4	-0,005
2727,077	4	-0,008
2737,691	4	-0,012
2748,292	4	-0,002
2758,899	4	-0,006
2769,495	4	-0,013
2780,096	1,5	-0,226
2790,685	0,5	-0,643
2801,287	0	-1,014
2811,9	0,5	-0,982
2822,502	0	-1,184
2833,109	-2,5	-2,288
2843,704	-11	-3,331
2854,306	-10,5	-3,487
2864,901	-6,5	-3,315
2875,503	-9,5	-3,438
2886,104	-7,5	-3,326
2896,699	-6	-3,258
2907,295	-8	-3,376
2917,896	-6	-3,276
2928,498	-6,5	-3,325
2939,099	-6	-3,293
2949,694	-4,5	-2,946
2960,29	-4	-2,91
2970,891	-4,5	-2,973
2981,487	-3	-2,608
2992,082	-2,5	-2,206
3002,695	-1	-1,611
3013,297	0	-0,798
3023,898	3	-0,398
3034,5	4	-0,001
3045,101	4	0
3055,702	4	-0,001
3066,304	4	-0,002
3076,911	4	-0,002
3087,507	3,5	-0,018
3098,102	1,5	-0,338
3108,703	-0,5	-1,7
3119,311	-3	-2,537
3129,906	-7	-2,924
3140,604	-3,5	-2,576
3151,217	-6,5	-2,938
3161,812	-10,5	-3,498
3172,414	-10	-3,47
3175,929	4	0