File: Cycling_tests/_40perc/_1gap/entrada/_5.txt
Time (s)	Load (N)	Displacement (mm)
36,19	-1,5	-0,553
45,765	-13,5	-2,675
55,341	-5,5	-1,309
64,934	-7,5	-1,952
74,533	-10,5	-2
84,139	-4	-1,287
93,726	-15	-2,53
103,332	0,5	-0,626
112,913	-21	-3,208
122,501	2	0
132,094	-20,5	-3,499
141,676	2	-0,002
223,758	-6	-2,068
233,362	-6	-1,681
242,956	-3	-1,325
252,569	-10,5	-2,32
262,191	-2,5	-1,048
271,802	-14,5	-2,676
281,414	-0,5	-0,818
291,019	-17	-2,969
300,654	1,5	-0,47
310,278	-19	-3,445
319,895	2,5	0
401,989	0,5	-0,576
411,612	-15,5	-2,966
421,236	2,5	0
430,841	-18	-3,498
440,465	2,5	-0,005
450,064	-17,5	-3,461
459,681	1,5	-0,088
469,311	-12	-3,072
478,926	-0,5	-0,618
488,564	-9	-2,647
498,175	-2,5	-1,249
507,775	-4,5	-1,888
517,393	-4,5	-1,726
527,016	-4	-1,674
536,633	-7,5	-2,149
654,91	-10	-2,413
664,516	-1	-0,956
674,115	-12,5	-2,675
683,721	0	-0,695
693,344	-12,5	-2,763
702,937	1,5	-0,502
712,549	-17	-3,23
722,16	2,5	-0,005
731,772	-17	-3,499
741,371	3	-0,002
750,983	-17	-3,494
760,588	2,5	-0,032
770,194	-14	-3,366
779,811	0	-0,532
789,429	-7,5	-2,743
799,04	-1	-0,913
808,633	-5,5	-2,2
818,227	-4	-1,663
827,826	-2,5	-1,346
837,426	-11	-2,576
847,043	1	-0,538
856,643	-16,5	-3,401
866,254	3	0
875,848	-16,5	-3,498
885,447	3	-0,003
895,04	-16,5	-3,491
904,634	2	-0,044
986,649	2,5	-0,008
996,261	-15	-3,465
1005,86	1,5	-0,18
1015,478	-9	-2,79
1025,083	-1,5	-1,219
1034,676	-3	-1,482
1044,276	-12,5	-2,868
1053,875	3	-0,001
1063,481	-15,5	-3,493
1073,074	1,5	-0,132
1082,668	-7,5	-2,744
1092,261	-3	-1,507
1101,849	-1,5	-1,113
1111,454	-16	-3,307
1121,048	2,5	-0,002
1130,653	-15,5	-3,488
1140,246	1	-0,173
1149,84	-7,5	-2,773
1159,445	-3,5	-1,476
1169,039	-2,5	-1,615
1178,632	-10	-2,573
1188,232	0,5	-0,612
1197,831	-15,5	-3,294
1207,431	3	-0,001
1217,024	-15,5	-3,495
1226,642	2,5	-0,021
1236,235	-13,5	-3,418
1245,846	1	-0,308
1255,44	-7,5	-2,793
1265,039	-1,5	-1,119
1274,645	-4,5	-2,027
1284,238	-5,5	-1,995
1293,838	-2	-1,242
1303,437	-9	-2,499
1313,043	0,5	-0,592
1322,654	-15	-3,36
1332,248	3	-0,001
1341,853	-15	-3,495
1351,452	2,5	-0,02
1361,04	-13	-3,377
1370,645	0	-0,541
1380,239	-6	-2,512
1389,838	-2	-1,416
1399,45	-3	-1,754
1409,061	-5,5	-2,14
1418,655	-1	-0,891
1428,26	-13,5	-3,04
1437,848	3	0
1447,423	-15	-3,497
1457,01	3	-0,022
1466,61	-13,5	-3,405
1476,203	0	-0,476
1485,803	-6	-2,582
1495,408	-1,5	-1,296
1505,002	-3	-1,79
1514,601	-6,5	-2,294
1524,201	0,5	-0,626
1533,8	-15	-3,302
1543,399	3	-0,001
1552,993	-15	-3,494
1562,574	2	-0,069
1572,168	-6,5	-2,697
1581,755	-4	-1,817
1591,343	2	-0,44
1600,936	-15	-3,497
1610,53	2,5	-0,054
1620,129	-6,5	-2,73
1629,723	-4	-1,782
1639,322	0	-0,7
1648,909	-15	-3,494
1658,509	3	-0,003
1668,096	-15	-3,476
1677,702	1,5	-0,153
1687,307	-9	-3,054
1696,913	-1,5	-1,19
1706,506	-1,5	-1,268
1716,094	-15	-3,255
1725,687	3	-0,004
1735,286	-9	-3,043
1744,874	-4	-1,928
1754,461	3	0
1764,055	-14,5	-3,483
1773,648	0	-0,822
1783,254	-1,5	-1,339
1792,841	-14,5	-3,198
1802,447	3	-0,001
1812,04	-14,5	-3,465
1821,634	1	-0,274
1831,221	-5	-2,37
1840,814	-4	-1,865
1850,408	-1	-0,88
1859,989	-14,5	-3,211
1869,589	3	-0,001
1879,194	-15	-3,496
1888,782	2,5	-0,052
1898,375	-9,5	-3,174
1907,963	-0,5	-1,021
1917,556	-1,5	-1,314
1927,144	-14,5	-3,257
1936,737	3	-0,005
1946,33	-11	-3,323
1955,912	-0,5	-0,905
1965,487	-2,5	-1,665
1975,081	-9	-2,677
1984,668	3	0
1994,268	-14,5	-3,492
2003,867	2,5	-0,046
2013,467	-7,5	-2,882
2023,054	-1	-1,33
2032,648	-1,5	-1,282
2042,235	-13	-3,132
2051,828	3	-0,001
2061,416	-14,5	-3,49
2070,997	1,5	-0,159
2080,591	-6,5	-2,787
2090,184	-1,5	-1,251
2099,766	-1,5	-1,412
2109,341	-13,5	-3,06
2118,935	3,5	-0,001
2128,522	-14,5	-3,493
2138,109	1,5	-0,126
2147,697	-5,5	-2,597
2157,29	-1,5	-1,34
2166,884	-2	-1,778
2176,465	-6	-2,335
2186,053	0,5	-0,666
2195,64	-14	-3,348
2205,234	3	0
2214,821	-14	-3,498
2224,409	3	-0,008
2233,996	-14	-3,477
2243,583	1,5	-0,211
2253,171	-7,5	-2,913
2262,764	-0,5	-1,188
2272,358	-2	-1,737
2281,957	-5,5	-2,159
2291,551	-0,5	-0,953
2301,144	-13	-3,086
2310,744	3	0
2320,319	-14	-3,487
2329,894	1,5	-0,17
2339,482	-5	-2,515
2349,075	-3	-1,81
2358,669	-0,5	-0,946
2368,256	-14	-3,31
2377,844	3	-0,002
2387,431	-13,5	-3,467
2397,025	1	-0,308
2406,612	-5	-2,493
2416,2	-2,5	-1,644
2425,793	-1	-1,228
2435,38	-12	-2,989
2444,974	3,5	-0,001
2454,561	-13,5	-3,479
2464,143	0,5	-0,324
2473,724	-4	-2,27
2483,318	-3	-1,826
2492,917	-1	-0,996
2502,505	-14	-3,494
2512,104	3	-0,001
2521,692	-13,5	-3,475
2531,279	1	-0,191
2540,873	-5,5	-2,625
2550,466	-4	-2,067
2560,041	3	-0,163
2569,635	-13,5	-3,495
2579,222	1,5	-0,181
2588,792	-3	-2,081
2598,379	-8,5	-2,72
2607,967	3	-0,001
2617,56	-13,5	-3,489
2627,166	0,5	-0,4
2636,759	-3,5	-2,232
2646,352	-6,5	-2,41
2655,94	3	-0,001
2665,533	-12,5	-3,462
2675,127	0,5	-0,412
2684,714	-5	-2,654
2694,302	-2,5	-1,69
2703,895	-1,5	-1,47
2713,489	-5	-2,218
2723,07	-0,5	-0,866
2732,658	-12	-3,032
2742,251	3	-0,042
2751,839	-13	-3,439
2761,426	3	-0,263
2771,019	-13	-3,365
2780,601	3	0
2790,176	-13	-3,498
2799,764	3	-0,003
2809,357	-13	-3,49
2818,951	2	-0,077
2828,532	-5,5	-2,781
2838,119	-1,5	-1,558
2847,701	0	-0,855
2857,288	-12,5	-3,236
2866,882	3	-0,001
2876,469	-12,5	-3,486
2886,051	1	-0,3
2895,638	-4	-2,488
2905,22	-2	-1,783
2914,813	0	-0,93
2924,395	-11	-3,164
2933,982	3	-0,002
2943,569	-11	-3,478
2953,163	2	-0,096
2962,75	-4,5	-2,746
2972,332	0	-1,019
2981,925	-2,5	-2,078
2991,519	-1,5	-1,746
3001,112	-1	-1,476
3010,7	-4	-2,379
3020,287	2	-0,485
3029,875	-10	-3,278
3039,456	3	0
3049,037	-10	-3,497
3058,625	3	-0,01
3068,212	-9	-3,436
3077,8	1	-0,344
3087,387	-3	-2,542
3096,969	-0,5	-1,498
3106,562	-1	-1,556
3116,162	-3,5	-2,383
3125,743	3	-0,392
3135,336	-9,5	-3,499
3144,918	3	-0,002
3154,505	-9	-3,488
3164,093	2	-0,072
3173,674	-5	-3,182
3183,262	0	-0,895
3192,855	-1,5	-2,035
3202,449	-1,5	-2,024
3212,036	0	-1,016
3221,618	-8,5	-3,132
3231,205	3	-0,001
3237,685	3	0