File: ensaios_Ciclicos/_20perc/_2gap/entrada/_2.txt
Time (s)	Load (N)	Displacement (mm)
0	0	-0,051
11,011	-10	-1,643
22,008	-23	-3,176
32,988	-31	-3,496
44,357	-4,5	-0,904
55,174	0	-0,158
66,465	-5,5	-1,276
77,301	-12	-2,131
88,04	-15,5	-2,55
99,008	-28	-3,475
109,753	-28	-3,486
120,871	-20	-2,556
131,7	-11,5	-1,735
142,649	0	-0,214
153,25	-1	-0,414
163,798	-5,5	-1,176
174,382	-9	-1,623
185,205	-2,5	-0,827
195,764	-7	-1,43
206,263	-17	-2,344
217,057	-11	-1,832
227,43	-27	-3,282
237,72	-24	-3,404
248,525	-26	-3,488
258,857	-13,5	-2,581
269,272	-4,5	-1,342
279,603	3,5	-0,002
289,977	2	-0,118
300,084	-22	-2,878
310,76	-20	-2,751
359,327	-18	-3,182
369,418	3,5	-0,052
379,545	-2	-0,847
389,661	-25	-3,499
438,235	-14,5	-2,777
448,278	3,5	-0,001
458,339	-5,5	-1,443
468,4	-24,5	-3,488
516,662	3,5	0
526,669	-5,5	-1,495
536,616	-22	-3,452
546,6	2,5	-0,364
556,601	-3	-1,264
566,561	-24	-3,483
576,478	1,5	-0,495
623,576	-3	-1,194
633,859	4	-0,004
643,74	-18,5	-2,77
653,658	-8	-2,268
663,533	2,5	-0,106
673,445	-23,5	-3,499
683,32	-1,5	-1,016
693,214	-2,5	-1,164
740,335	0,5	-0,357
750,174	-23,5	-3,495
759,96	3,5	-0,103
769,721	-15	-2,528
779,537	-5,5	-1,885
789,304	-1	-0,835
799,126	-21	-3,417
808,941	4	-0,005
818,72	-23	-3,457
828,542	-2,5	-1,118
838,321	-4,5	-1,51
848,101	-14,5	-2,946
857,868	3,5	-0,049
867,672	-23	-3,498
877,49	1,5	-0,514
887,284	-7,5	-1,885
897,053	-9	-2,436
906,807	0,5	-0,345
916,575	-22,5	-3,478
999,7	-15,5	-3,189
1009,497	4	-0,019
1019,241	-22,5	-3,498
1028,996	4	-0,07
1038,728	-17,5	-2,902
1048,465	-2,5	-1,128
1058,185	-9	-2,047
1068,342	-22	-3,489
1078,134	4	0
1087,901	-19,5	-2,924
1097,698	-3	-1,425
1107,424	-5	-1,622
1117,161	-10	-2,602
1126,911	1,5	-0,213
1136,69	-22	-3,479
1146,434	4	-0,003
1156,183	-22	-3,5
1165,969	0	-0,74
1175,712	-9	-2,057
1185,473	-6	-2,164
1195,247	0	-0,648
1204,99	-17	-3,334
1214,752	3,5	-0,019
1224,471	-22	-3,496
1234,197	4	-0,001
1243,94	-21,5	-3,189
1253,665	-1,5	-0,961
1263,397	-6,5	-1,896
1273,14	-6,5	-2,21
1282,86	-0,5	-0,768
1292,645	-19	-3,408
1302,389	4	-0,01
1312,15	-22	-3,499
1321,894	2,5	-0,444
1331,643	-10,5	-2,272
1341,386	-4,5	-1,866
1351,124	-1,5	-1,047
1360,867	-15	-3,197
1370,611	3,5	-0,042
1380,342	-21,5	-3,49
1390,062	4	-0,002
1399,763	-21,5	-3,489
1409,477	2,5	-0,498
1419,226	-10,5	-2,365
1428,963	-4,5	-1,758
1438,671	-1,5	-1,082
1448,385	-14,5	-3,097
1458,146	4	-0,031
1467,877	-21	-3,496
1477,615	4	-0,001
1487,364	-19,5	-3,02
1497,09	-2	-1,141
1506,803	-5	-1,755
1516,535	-7	-2,354
1526,26	0,5	-0,549
1535,985	-19	-3,412
1545,723	4	-0,014
1555,454	-21	-3,497
1565,162	4	-0,001
1574,887	-21	-3,197
1584,625	-1,5	-1,088
1594,344	-5,5	-1,748
1604,045	-5,5	-2,125
1613,747	-0,5	-0,793
1623,46	-14	-3,178
1633,156	1,5	-0,198
1642,881	-20,5	-3,466
1652,589	4	-0,009
1662,314	-21	-3,499
1672,046	4	-0,279
1681,753	-15	-2,767
1691,455	-2	-1,283
1701,144	-6	-1,812
1710,846	-7	-2,291
1720,589	0,5	-0,533
1730,302	-17,5	-3,398
1740,094	4	-0,008
1749,795	-21	-3,498
1759,533	3,5	-0,083
1769,204	-19	-3,074
1778,893	-0,5	-0,862
1788,607	-7	-2,037
1798,297	-5	-2,128
1807,992	-1	-0,936
1817,669	-12	-2,972
1827,383	2,5	-0,122
1837,066	-19	-3,43
1846,762	4	-0,022
1856,457	-21	-3,496
1866,122	4	-0,002
1875,8	-21	-3,5
1885,465	3,5	-0,308
1895,149	-16,5	-2,899
1904,79	0	-0,739
1914,468	-10,5	-2,415
1924,175	-3	-1,557
1933,883	-3	-1,447
1943,572	-8	-2,47
1953,274	0	-0,644
1962,969	-15	-3,237
1972,623	3	-0,096
1982,288	-20	-3,463
1991,971	4	-0,014
2001,619	-20,5	-3,489
2011,278	4	-0,005
2020,944	-20	-3,497
2030,627	4	-0,001
2040,323	-20	-3,433
2049,994	3	-0,373
2059,678	-15	-2,761
2069,379	-1	-1,124
2079,039	-8	-2,136
2088,758	-4,5	-2,093
2098,411	-1,5	-1,181
2108,083	-6,5	-2,379
2117,772	0	-0,705
2127,474	-14,5	-3,32
2137,145	3	-0,075
2146,805	-19	-3,472
2156,494	4	-0,008
2166,165	-19,5	-3,497
2175,849	4	-0,001
2185,532	-19,5	-3,5
2195,198	3,5	-0,331
2204,899	-12	-2,627
2214,571	-1,5	-1,22
2224,272	-5,5	-1,968
2233,926	-3	-1,708
2243,579	-3,5	-1,651
2253,251	-4,5	-2,026
2262,946	-1,5	-1,172
2272,611	-8	-2,612
2282,265	0	-0,64
2291,936	-12	-3,131
2301,584	1,5	-0,241
2311,261	-17,5	-3,434
2320,915	3,5	-0,023
2330,574	-19,5	-3,49
2340,234	4	-0,003
2349,941	-19,5	-3,499
2359,606	4	0
2369,266	-19	-3,37
2378,913	3,5	-0,288
2388,573	-15	-2,902
2398,232	-0,5	-0,896
2407,904	-7	-2,235
2417,569	-2,5	-1,549
2427,216	-3,5	-1,707
2436,87	-5	-2,134
2446,517	-0,5	-1,112
2456,171	-7	-2,556
2465,842	0	-0,805
2475,508	-9	-2,847
2485,209	1,5	-0,224
2494,881	-16,5	-3,421
2504,564	4	-0,032
2514,242	-18	-3,486
2523,907	4	-0,006
2533,554	-18	-3,497
2543,214	4	-0,001
2552,885	-17	-3,5
2562,551	3,5	-0,387
2572,21	-11	-2,776
2581,888	-0,5	-1,072
2591,547	-6	-2,186
2601,213	-2	-1,582
2610,872	-3	-1,768
2620,537	-4	-2,159
2630,203	-0,5	-1,104
2639,886	-6	-2,671
2649,54	0,5	-0,673
2659,181	-9	-3,104
2668,853	2,5	-0,143
2678,512	-12	-3,407
2688,178	4	-0,024
2697,825	-14	-3,483
2707,496	4	-0,005
2717,15	-14,5	-3,497
2726,803	4	-0,002
2736,463	-13,5	-3,499
2746,164	4	-0,141
2755,818	-12	-3,175
2765,477	0,5	-0,687
2775,161	-4,5	-2,452
2784,85	-1	-1,399
2794,54	-0,5	-1,648
2804,175	-2	-1,87
2813,816	0	-1,512
2823,476	-3	-2,188
2833,123	0	-1,148
2842,819	-4,5	-2,741
2852,484	1,5	-0,501
2862,138	-7,5	-3,212
2871,797	3	-0,082
2881,481	-11,5	-3,479
2891,17	4	-0,006
2900,847	-12	-3,495
2910,513	4	-0,003
2920,19	-11,5	-3,499
2929,88	4	-0,07
2939,527	-11,5	-3,347
2949,223	3	-0,469
2958,882	-7,5	-2,882
2968,536	1	-0,663
2978,195	-4,5	-2,608
2987,842	0	-1,05
2997,484	-2	-2,227
3007,143	-1	-1,486
3016,809	0	-1,697
3026,48	-1,5	-1,99
3036,152	0,5	-1,146
3045,805	-3	-2,605
3055,471	1,5	-0,598
3065,118	-4	-2,975
3074,789	2	-0,204
3084,503	-9,5	-3,466
3094,21	4	-0,008
3103,876	-10	-3,492
3113,565	4	-0,003
3123,231	-10	-3,499
3132,914	4	-0,001
3142,598	-10	-3,315
3152,245	3,5	-0,435
3161,892	-5,5	-2,852
3171,552	0	-0,843
3181,199	-3,5	-2,562
3190,865	0	-1,08
3200,518	-2,5	-2,403
3203,488	4	-0,001