File: ensaios_Ciclicos/_20perc/_2gap/entrada/_3.txt
Time (s)	Load (N)	Displacement (mm)
42,21	-5,5	-0,869
53,321	3	-0,002
64,87	-29	-3,486
75,927	-23	-2,728
87,285	3	-0,009
98,012	3	-0,002
108,823	2,5	-0,437
119,995	-18,5	-2,883
130,728	-22	-3,268
141,623	-27,5	-3,495
152,825	-10,5	-1,725
163,306	-19	-2,506
174,31	-1,5	-0,725
184,899	-4	-1,015
195,488	-5	-1,189
284,841	-8,5	-1,728
295,191	-25,5	-3,269
305,858	-25,5	-3,128
316,303	-25,5	-3,497
365,099	-23	-3,418
375,274	-3	-1,196
385,443	3,5	-0,023
395,703	-7	-1,593
405,896	-25	-3,499
416,126	-15,5	-2,995
426,349	-1,5	-0,966
436,968	0	-0,832
447,048	0,5	-0,239
457,169	-18	-2,597
467,333	-24	-3,476
515,486	1,5	-0,502
525,517	-1,5	-0,848
535,513	-24	-3,498
545,58	-7	-2,022
555,618	4	-0,014
565,607	-15,5	-2,586
575,639	-19	-3,325
585,634	4	-0,09
596,019	4	-0,022
605,991	-19	-2,83
615,944	-12	-2,624
625,94	4	-0,002
635,917	-10,5	-2,072
645,895	-19,5	-3,376
655,806	4	-0,001
665,783	-7,5	-1,804
675,731	-20	-3,436
685,69	4	-0,279
695,596	-6	-1,66
705,483	-21,5	-3,433
715,371	4	-0,009
725,264	-11,5	-2,124
735,176	-15,5	-3,052
781,805	-6,5	-2,043
791,668	2	-0,112
801,55	-23	-3,499
811,443	-4	-1,516
821,301	-0,5	-0,67
831,188	-22,5	-3,493
841,052	3	-0,421
850,933	-6	-1,691
860,808	-16,5	-3,232
870,63	4	-0,007
880,505	-21	-3,093
890,777	-21	-3,456
900,628	4	-0,001
910,467	-14,5	-2,563
920,343	-10,5	-2,587
930,194	4	-0,01
940,064	-21	-3,074
949,939	-6,5	-2,088
959,791	1,5	-0,214
969,588	-22	-3,492
979,428	4	-0,222
989,255	-10	-2,11
999,106	-12	-2,844
1008,94	4	-0,027
1018,755	-22	-3,5
1028,601	-3,5	-1,362
1038,416	-2	-1,072
1048,268	-20	-3,432
1058,083	4	-0,004
1067,958	-15	-2,718
1077,828	-8	-2,37
1087,733	4	-0,023
1097,567	-22	-3,5
1107,382	-2	-1,086
1117,192	-3	-1,387
1127,025	-16,5	-3,316
1136,859	4	-0,006
1146,698	-21,5	-3,188
1156,513	-3,5	-1,514
1166,359	-1	-0,808
1176,162	-21	-3,47
1185,978	4	-0,001
1195,811	-12,5	-2,473
1205,615	-7	-2,253
1215,449	3	-0,101
1225,275	-21,5	-3,498
1235,091	3	-0,378
1244,912	-9	-2,158
1254,746	-10	-2,623
1264,579	3,5	-0,04
1274,395	-21,5	-3,499
1284,192	0,5	-0,756
1294,038	-3	-1,362
1303,859	-17	-3,343
1313,698	4	-0,008
1323,508	-21	-3,476
1333,317	-2,5	-1,261
1343,127	-3	-1,33
1352,936	-15	-3,235
1362,752	3,5	-0,037
1372,543	-21	-3,498
1382,352	2	-0,49
1392,174	-6,5	-1,929
1402,001	-10,5	-2,741
1411,811	3	-0,086
1421,627	-21	-3,498
1431,424	3,5	-0,399
1441,239	-9,5	-2,2
1451,037	-6	-2,145
1460,853	0	-0,564
1470,691	-20	-3,476
1480,531	4	-0,001
1490,316	-20,5	-3,079
1500,144	-3	-1,422
1509,929	-3,5	-1,528
1519,769	-14,5	-3,195
1529,626	4	-0,011
1539,484	-21	-3,479
1549,305	-2	-1,057
1559,115	-4	-1,528
1568,918	-12,5	-3,058
1578,721	3,5	-0,05
1588,531	-21	-3,498
1598,34	0,5	-0,664
1608,126	-8,5	-2,218
1617,923	-7,5	-2,41
1627,691	1,5	-0,212
1637,47	-20,5	-3,489
1647,297	4	-0,006
1657,131	-10,5	-2,372
1666,952	-6,5	-2,306
1676,732	1,5	-0,22
1686,517	-20,5	-3,492
1696,309	4	0
1706,112	-12	-2,599
1715,951	-6	-2,142
1725,755	0,5	-0,416
1735,576	-20	-3,488
1745,32	4	-0,001
1755,081	-20	-3,121
1765,167	-12	-3,004
1774,946	3,5	-0,042
1784,725	-20	-3,498
1794,524	3,5	-0,471
1804,272	-9	-2,255
1814,046	-6	-2,278
1823,819	1	-0,307
1833,575	-19,5	-3,487
1843,324	4	-0,001
1853,08	-18,5	-3,044
1862,823	-2,5	-1,366
1872,999	4	-0,018
1882,772	-19,5	-3,499
1892,509	3	-0,433
1902,229	-11,5	-2,517
1911,966	-4,5	-1,906
1921,71	-0,5	-0,771
1931,429	-15,5	-3,368
1941,161	4	-0,019
1950,916	-19,5	-3,498
1960,755	0	-0,73
1970,499	-7	-2,123
1980,224	-5,5	-2,252
1989,974	1	-0,434
1999,765	-19,5	-3,486
2009,497	4	-0,002
2019,246	-19	-3,144
2028,996	-2	-1,249
2038,745	-3	-1,562
2048,504	-10	-2,891
2058,232	3,5	-0,08
2067,957	-19	-3,492
2077,701	4	0
2087,486	-11	-2,573
2097,254	-4,5	-1,977
2106,997	0	-0,653
2116,746	-18	-3,436
2126,52	4,5	-0,004
2136,264	-19	-3,414
2146,014	-1,5	-1,066
2155,744	-3,5	-1,751
2165,47	-7	-2,473
2175,243	3	-0,126
2184,963	-18,5	-3,489
2194,676	4	-0,002
2204,449	-18,5	-3,24
2214,211	-1,5	-1,188
2223,918	-3,5	-1,715
2233,662	-7,5	-2,507
2243,399	2	-0,201
2253,209	-18,5	-3,495
2262,922	4	-0,001
2272,66	-17	-3,048
2282,409	-1,5	-1,222
2292,146	-3	-1,585
2301,884	-7	-2,577
2311,621	1,5	-0,254
2321,359	-18	-3,483
2331,096	4	-0,002
2340,882	-15	-2,953
2350,637	-2	-1,39
2360,375	-3	-1,55
2370,106	-6	-2,528
2379,825	1	-0,338
2389,545	-16,5	-3,457
2399,324	4,5	-0,003
2409,056	-18	-3,5
2418,769	3,5	-0,364
2428,531	-10,5	-2,625
2438,274	-2	-1,456
2448,018	-3	-1,641
2457,755	-6	-2,52
2467,54	1,5	-0,201
2477,26	-15,5	-3,458
2486,979	4	-0,013
2496,717	-17	-3,498
2506,46	4	-0,012
2516,21	-12,5	-2,876
2525,941	-1,5	-1,244
2535,667	-1,5	-1,447
2545,422	-9,5	-3,016
2555,153	3,5	-0,054
2564,903	-15,5	-3,496
2574,64	4	0
2584,366	-15	-3,134
2594,091	0	-0,857
2603,805	-6	-2,294
2613,524	-2,5	-1,656
2623,244	-1	-1,418
2632,975	-6,5	-2,714
2642,695	1,5	-0,338
2652,408	-13,5	-3,473
2662,175	4,5	-0,001
2671,913	-12	-3,099
2681,65	-1,5	-1,276
2691,37	-0,5	-1,468
2701,143	-7,5	-3,093
2710,917	4	-0,037
2720,648	-13	-3,496
2730,392	4	-0,036
2740,123	-8,5	-2,787
2749,854	-1,5	-1,457
2759,61	0	-1,175
2769,365	-9	-3,318
2779,097	4	-0,02
2788,852	-12,5	-3,498
2798,62	4	-0,399
2808,351	-6,5	-2,604
2818,076	-1,5	-1,483
2827,808	-0,5	-1,408
2837,533	-5	-2,732
2847,265	2	-0,12
2857,062	-12,5	-3,494
2866,794	4	-0,001
2876,525	-12	-3,191
2886,269	0	-0,96
2896,006	-2	-1,911
2905,755	-3,5	-2,401
2915,499	1,5	-0,335
2925,224	-12	-3,461
2934,95	4	-0,008
2944,675	-12,5	-3,499
2954,395	3,5	-0,361
2964,186	-3	-2,154
2973,93	-2,5	-2,123
2983,655	0,5	-0,958
2993,392	-8,5	-3,328
3003,13	4	-0,023
3012,849	-11,5	-3,497
3022,617	4	-0,242
3032,366	-5	-2,561
3042,104	-1,5	-1,772
3051,865	0,5	-0,916
3061,579	-6	-3,126
3071,304	2,5	-0,099
3081,011	-10,5	-3,478
3090,773	4	-0,002
3100,522	-10,5	-3,328
3110,296	-0,5	-1,106
3120,039	-0,5	-1,743
3129,789	-3	-2,586
3139,508	1,5	-0,319
3149,258	-9,5	-3,47
3158,989	4	-0,006
3168,726	-10	-3,5
3178,494	0	-1,001
3188,255	-0,5	-1,821
3197,447	4	-0,001