File: Cycling_tests/_50perc/_3gap/entrada/_2.txt
Time (s)	Load (N)	Displacement (mm)
0	0	-0,03
10,63	0	-0,394
21,19	1	-0,294
31,773	0	-0,562
42,345	0	-0,528
52,934	1	-0,34
63,523	1	-0,37
74,107	1,5	-0,132
84,69	1,5	-0,002
95,321	1,5	-0,001
105,917	1,5	-0,222
116,518	1,5	-0,003
127,114	2	-0,011
137,697	2	-0,007
148,269	1,5	-0,073
158,858	2	-0,051
169,459	1	-0,172
180,067	0	-0,308
190,662	1	-0,135
201,252	1	-0,112
211,853	0,5	-0,224
222,46	1	-0,116
233,092	2	-0,036
243,705	1	-0,07
254,307	1,5	-0,051
264,926	2	-0,021
275,521	1,5	-0,049
286,141	1,5	-0,048
296,748	2	-0,016
307,367	2	-0,009
317,957	2	-0,006
328,564	2	-0,003
339,184	2	-0,001
349,785	2	-0,001
360,392	1,5	-0,306
371	1,5	-0,41
381,595	1,5	-0,401
392,203	1,5	-0,297
402,804	1,5	-0,463
413,423	-1	-0,946
424,031	-1,5	-1,141
434,656	-2	-1,255
445,263	-2	-1,258
455,883	-2,5	-1,455
466,502	-2,5	-1,363
477,122	-2	-1,331
487,735	-3	-1,524
498,33	-2,5	-1,465
508,938	-3	-1,494
519,575	-4	-1,882
530,195	-5	-2,216
540,796	-5	-2,247
551,403	-3	-1,665
562,011	-2,5	-1,483
572,612	-2	-1,222
583,232	-2	-1,264
593,839	-2	-1,271
604,458	-2	-1,402
615,084	-2,5	-1,566
625,691	-3	-1,707
636,305	-3,5	-1,953
646,906	-3,5	-1,83
657,519	-3	-1,746
668,127	-3	-1,692
678,728	-3	-1,718
689,342	-3	-1,814
699,955	-4	-1,942
710,556	-4,5	-2,16
721,164	-6	-2,429
731,765	-7	-2,578
742,373	-7,5	-2,745
752,98	-10	-3,073
763,593	-11	-3,258
774,195	-12	-3,342
784,802	-13,5	-3,44
795,409	-14,5	-3,472
806,011	-14	-3,466
816,636	-14,5	-3,474
827,262	-14,5	-3,486
837,863	-14,5	-3,491
848,47	-14,5	-3,496
859,084	-15	-3,498
869,685	-14,5	-3,498
880,287	-14,5	-3,499
890,882	-14,5	-3,499
901,483	-14,5	-3,393
912,073	-14,5	-3,237
922,68	-13,5	-3,03
933,294	-11	-2,848
943,901	-10,5	-2,788
954,514	-8	-2,45
965,122	-6	-2,139
975,729	-4	-1,829
986,325	-3	-1,533
996,914	-2,5	-1,525
1007,509	-3	-1,668
1018,093	-4	-1,874
1028,688	-6,5	-2,262
1039,284	-9	-2,6
1049,867	-11,5	-2,93
1060,462	-14	-3,251
1071,052	-14	-3,371
1081,647	-14	-3,365
1092,231	-14,5	-3,499
1102,814	-14	-3,499
1113,397	-14,5	-3,498
1123,999	-14	-3,498
1134,594	-14	-3,496
1145,177	-14	-3,496
1155,767	-14	-3,497
1166,35	-14,5	-3,498
1176,952	-14	-3,498
1187,535	-14	-3,495
1198,13	-14	-3,488
1208,732	-13,5	-3,472
1219,327	-11,5	-3,379
1229,917	-10	-3,221
1240,518	-10	-3,224
1251,119	-9	-3,1
1261,715	-8	-2,909
1272,31	-7	-2,725
1282,906	-6	-2,604
1293,507	-6	-2,651
1304,102	-5,5	-2,643
1314,704	-5,5	-2,53
1325,311	-5,5	-2,597
1335,901	-5,5	-2,575
1346,496	-3,5	-2,182
1357,085	-4	-2,164
1367,681	-3	-1,931
1378,27	-3	-1,909
1388,866	-2,5	-1,66
1399,461	-1,5	-1,422
1410,05	-1,5	-1,171
1420,652	-0,5	-0,846
1431,247	0	-0,773
1441,843	0	-0,646
1452,432	1,5	-0,506
1463,033	1,5	-0,459
1473,623	2	-0,108
1484,218	2	0
1494,814	2	-0,001
1505,415	2	-0,001
1516,01	2	-0,002
1526,606	2	-0,002
1537,183	2	-0,001
1547,772	2,5	-0,001
1558,356	2,5	-0,001
1568,951	2	-0,001
1579,541	2,5	-0,001
1590,13	2,5	-0,002
1600,719	2,5	-0,004
1611,315	2,5	-0,002
1621,904	2,5	-0,001
1632,488	2	-0,158
1643,071	2,5	-0,141
1653,66	2	-0,071
1664,256	2,5	-0,001
1674,845	2,5	-0,001
1685,441	2	-0,001
1696,03	2	-0,131
1706,613	1,5	-0,412
1717,203	1,5	-0,36
1727,792	2,5	0
1738,388	2,5	-0,046
1748,983	1,5	-0,39
1759,56	0	-0,754
1770,144	0	-0,764
1780,733	-1	-1,214
1791,317	-2	-1,613
1801,9	-3	-1,97
1812,477	-1,5	-1,589
1823,061	-1,5	-1,534
1833,656	-1,5	-1,34
1844,252	0	-0,725
1854,847	0,5	-0,688
1865,436	2	-0,21
1876,02	2,5	-0,001
1886,609	2	-0,002
1897,211	2,5	-0,004
1907,788	2,5	-0,011
1918,389	1,5	-0,07
1928,973	0,5	-0,231
1939,562	0	-0,486
1950,164	0	-0,635
1960,753	-1	-1,084
1971,336	-2	-1,456
1981,926	-2	-1,575
1992,515	-3,5	-1,811
2003,104	-3	-1,684
2013,688	-2,5	-1,658
2024,277	-0,5	-1,022
2034,873	-0,5	-0,92
2045,456	0	-0,733
2056,045	0	-0,624
2066,629	0	-0,559
2077,218	0,5	-0,276
2087,808	1,5	-0,11
2098,391	1	-0,115
2108,98	0,5	-0,242
2119,558	1	-0,256
2130,165	0,5	-0,222
2140,749	0,5	-0,343
2151,338	0	-0,532
2161,945	1	-0,148
2172,523	1,5	-0,11
2183,118	1	-0,126
2193,708	2,5	-0,01
2204,303	2	-0,005
2214,886	2,5	-0,001
2225,476	2	0
2236,059	2	-0,07
2246,649	2,5	-0,156
2257,238	2	0
2267,833	2	-0,001
2278,417	2,5	-0,001
2289,006	2,5	0
2299,59	2	-0,264
2310,179	2	0
2320,768	2	0
2331,358	2	-0,083
2341,953	2	-0,004
2352,542	2	-0,197
2363,126	2	-0,108
2373,715	2	-0,19
2384,299	2,5	-0,058
2394,9	2,5	-0,206
2405,477	2,5	-0,012
2416,067	2,5	-0,007
2426,65	2,5	-0,012
2437,24	2,5	-0,013
2447,835	2,5	-0,004
2458,412	2,5	-0,004
2469,008	2,5	-0,002
2479,597	2,5	-0,001
2490,181	2	-0,001
2500,77	2,5	0
2511,353	2,5	-0,012
2521,943	2	-0,036
2532,52	2	-0,001
2543,098	2,5	-0,001
2553,675	2,5	0
2564,27	1,5	-0,394
2574,866	1,5	-0,4
2585,461	1,5	-0,494
2596,057	0	-0,787
2606,646	-0,5	-1,094
2617,241	-0,5	-1,005
2627,831	-0,5	-1,173
2638,42	-1	-1,352
2649,01	-1,5	-1,504
2659,599	-1,5	-1,534
2670,188	-1	-1,256
2680,784	-1	-1,342
2691,373	-1,5	-1,416
2701,969	-1,5	-1,545
2712,564	-2	-1,641
2723,153	-2,5	-2,087
2733,743	-4	-2,409
2744,332	-4,5	-2,63
2754,922	-7	-3,086
2765,517	-10	-3,39
2776,1	-10	-3,396
2786,69	-11	-3,481
2797,279	-11	-3,491
2807,868	-11	-3,492
2818,458	-11	-3,491
2829,041	-10,5	-3,479
2839,631	-10,5	-3,474
2850,22	-10,5	-3,482
2860,797	-10,5	-3,488
2871,381	-10,5	-3,492
2881,964	-10,5	-3,496
2892,554	-10,5	-3,498
2903,149	-10,5	-3,499
2913,732	-10,5	-3,499
2924,322	-10	-3,499
2934,893	-10	-3,499
2945,471	-10	-3,499
2956,06	-10	-3,499
2966,643	-10	-3,499
2977,227	-10	-3,499
2987,816	-9,5	-3,5
2998,406	-9	-3,165
3008,989	-8,5	-3,009
3019,578	-5	-2,685
3030,168	-5,5	-2,715
3040,751	-4	-2,347
3051,329	-4	-2,383
3061,918	-2,5	-2,114
3072,501	-2	-1,938
3083,085	-2,5	-2,044
3093,674	-2	-1,998
3104,27	-3	-2,253
3114,859	-6,5	-2,945
3125,442	-7	-2,973
3136,032	-6,5	-2,968
3146,615	-8	-3,172
3157,205	-8	-3,24
3167,788	-7,5	-3,359
3177,309	2,5	-0,001