File: Cycling_tests/_50perc/_3gap/entrada/_5.txt
Time (s)	Load (N)	Displacement (mm)
0	0	-0,027
10,569	1	-0,295
21,105	1,5	-0,024
31,64	1,5	0
42,181	2	0
52,753	1,5	-0,127
63,312	1,5	-0,388
73,872	1,5	-0,353
84,443	0	-0,672
94,984	0	-0,76
105,55	-2	-1,09
116,121	-4	-1,449
126,681	-4,5	-1,68
137,222	-5	-1,859
147,769	-5,5	-2,018
158,329	-6	-2,175
168,876	-6	-2,126
179,43	-6	-2,121
189,965	-5,5	-2,094
200,512	-4	-1,616
211,06	-4	-1,644
221,607	-4	-1,575
232,142	-1	-0,941
242,714	-2	-1,051
253,273	0	-0,692
263,821	0,5	-0,576
274,38	2	-0,36
284,939	2,5	0
295,487	2,5	-0,004
306,04	2,5	-0,008
316,6	2	-0,042
327,153	1	-0,192
337,688	0	-0,51
348,242	-0,5	-0,734
358,789	-5	-1,793
369,355	-6	-1,898
379,926	-7,5	-2,16
390,497	-9,5	-2,502
401,063	-12	-2,762
411,622	-13	-2,903
422,188	-12,5	-2,818
432,753	-11,5	-2,812
443,33	-15	-3,131
453,884	-13,5	-2,971
464,449	-14,5	-3,088
475,015	-15	-3,459
485,586	-15	-3,499
496,145	-15	-3,497
506,687	-15	-3,498
517,258	-15	-3,498
527,812	-15	-3,344
538,383	-13,5	-3,062
548,972	-10,5	-2,697
559,544	-9,5	-2,559
570,109	-11	-2,72
580,681	-8,5	-2,438
591,234	-8	-2,392
601,787	-7,5	-2,43
612,371	-7,5	-2,324
622,942	-6	-2,165
633,502	-5	-2,036
644,067	-4,5	-1,854
654,62	-4	-1,798
665,186	-3,5	-1,659
675,751	-3	-1,515
686,334	-2,5	-1,445
696,918	-2	-1,329
707,483	-2	-1,302
718,025	-2	-1,389
728,584	-1,5	-1,245
739,161	-1	-1,066
749,739	-0,5	-0,889
760,292	-0,5	-0,917
770,888	-1	-0,964
781,483	-0,5	-0,798
792,054	-0,5	-0,814
802,644	-1	-1,051
813,227	-0,5	-0,864
823,823	-0,5	-0,768
834,4	0	-0,675
844,953	0	-0,643
855,531	0	-0,349
866,126	1,5	-0,137
876,704	1,5	-0,083
887,287	2,5	-0,028
897,888	2,5	-0,008
908,466	3	-0,002
919,031	3	-0,002
929,603	3	-0,001
940,168	2,5	-0,001
950,733	2,5	-0,001
961,329	2,5	-0,168
971,894	2,5	-0,316
982,484	1,5	-0,479
993,055	1,5	-0,59
1003,62	0,5	-0,616
1014,198	0	-0,703
1024,775	1	-0,652
1035,347	-1	-0,991
1045,924	-2	-1,34
1056,489	-3	-1,521
1067,061	-3	-1,63
1077,632	-4	-1,942
1088,198	-4,5	-2,171
1098,757	-5	-2,3
1109,328	-5	-2,374
1119,894	-5,5	-2,406
1130,465	-5	-2,42
1141,042	-6,5	-2,672
1151,602	-7	-2,776
1162,179	-8	-2,985
1172,751	-9,5	-3,18
1183,316	-10	-3,225
1193,887	-11	-3,316
1204,465	-12,5	-3,41
1215,03	-13	-3,456
1225,608	-13	-3,467
1236,173	-13,5	-3,487
1246,75	-13,5	-3,492
1257,31	-13,5	-3,495
1267,881	-13,5	-3,496
1278,447	-13,5	-3,498
1289,018	-13,5	-3,498
1299,577	-13	-3,499
1310,155	-13,5	-3,5
1320,72	-13,5	-3,418
1331,286	-13,5	-3,216
1341,851	-12	-2,964
1352,41	-11	-2,87
1363	-8,5	-2,633
1373,571	-9	-2,656
1384,149	-7,5	-2,404
1394,714	-6,5	-2,418
1405,285	-6,5	-2,347
1415,857	-6	-2,236
1426,422	-4,5	-1,981
1436,988	-3	-1,718
1447,553	-3	-1,634
1458,112	-2,5	-1,494
1468,672	-1,5	-1,295
1479,231	-1	-1,144
1489,809	-0,5	-0,904
1500,38	-0,5	-0,675
1510,963	0	-0,34
1521,547	1,5	-0,1
1532,112	2	-0,075
1542,684	2,5	-0,028
1553,261	2,5	-0,013
1563,814	2,5	-0,008
1574,386	3	-0,004
1584,951	2,5	-0,002
1595,516	3	-0,001
1606,082	2,5	0
1616,647	3	-0,186
1627,201	1,5	-0,476
1637,766	1,5	-0,44
1648,332	0,5	-0,648
1658,903	-0,5	-0,822
1669,474	-1	-1,012
1680,034	-2	-1,255
1690,599	-2,5	-1,504
1701,17	-3	-1,688
1711,742	-3	-1,74
1722,301	-3,5	-1,94
1732,867	-3,5	-2,041
1743,426	-3,5	-2,053
1753,991	-4,5	-2,256
1764,557	-5	-2,426
1775,122	-5,5	-2,597
1785,7	-7	-2,954
1796,271	-6,5	-2,879
1806,842	-8	-3,158
1817,42	-10	-3,356
1827,979	-10,5	-3,411
1838,557	-12	-3,459
1849,122	-12	-3,479
1859,687	-12,5	-3,484
1870,253	-12,5	-3,488
1880,818	-12,5	-3,492
1891,378	-12,5	-3,49
1901,931	-12,5	-3,492
1912,496	-12,5	-3,497
1923,05	-12,5	-3,498
1933,615	-12,5	-3,498
1944,181	-12,5	-3,499
1954,752	-12,5	-3,499
1965,311	-12,5	-3,431
1975,889	-12,5	-3,274
1986,448	-12,5	-3,294
1997,014	-12,5	-3,283
2007,591	-12,5	-3,248
2018,156	-12	-3,139
2028,716	-11	-3,045
2039,287	-10,5	-2,925
2049,841	-9,5	-2,813
2060,406	-7,5	-2,509
2070,965	-6	-2,364
2081,525	-6	-2,373
2092,09	-5	-2,255
2102,668	-4	-2,068
2113,233	-2,5	-1,658
2123,804	-2	-1,447
2134,376	-1	-1,23
2144,947	-0,5	-0,971
2155,507	0	-0,789
2166,06	0	-0,789
2176,607	0	-0,618
2187,173	0	-0,378
2197,732	0,5	-0,297
2208,304	0,5	-0,185
2218,875	1,5	-0,126
2229,44	2	-0,086
2240,012	2	-0,068
2250,577	2,5	-0,04
2261,142	3	-0,02
2271,714	2,5	-0,01
2282,285	3	-0,005
2292,869	3	-0,002
2303,428	2,5	-0,001
2313,993	3	-0,02
2324,559	2,5	-0,316
2335,13	1,5	-0,535
2345,702	0	-0,836
2356,273	-1	-1,1
2366,844	-1,5	-1,258
2377,416	-1,5	-1,368
2387,987	-1,5	-1,505
2398,553	-2	-1,415
2409,118	-2	-1,596
2419,689	-2,5	-1,7
2430,261	-3	-1,975
2440,82	-3	-2,005
2451,386	-4	-2,222
2461,945	-4,5	-2,406
2472,51	-4,5	-2,496
2483,076	-6	-2,911
2493,647	-7,5	-3,112
2504,219	-8,5	-3,306
2514,79	-10,5	-3,437
2525,355	-11,5	-3,465
2535,921	-12	-3,474
2546,492	-12	-3,481
2557,064	-12	-3,485
2567,623	-12	-3,486
2578,194	-11,5	-3,478
2588,772	-5,5	-2,806
2599,337	-6	-2,78
2609,909	-4	-2,39
2620,474	-5	-2,614
2631,039	-6	-2,896
2641,623	-8	-3,214
2652,188	-9	-3,356
2662,76	-10,5	-3,429
2673,325	-11	-3,466
2683,896	-11,5	-3,484
2694,45	-11,5	-3,493
2705,009	-11	-3,494
2715,568	-11,5	-3,496
2726,128	-11,5	-3,497
2736,699	-11	-3,476
2747,265	-11	-3,482
2757,824	-11	-3,488
2768,389	-10,5	-3,446
2778,949	-9,5	-3,39
2789,52	-10	-3,437
2800,086	-10	-3,438
2810,663	-9	-3,385
2821,228	-9,5	-3,435
2831,806	-10,5	-3,49
2842,371	-10,5	-3,494
2852,937	-10,5	-3,496
2863,49	-10,5	-3,497
2874,061	-10,5	-3,498
2884,639	-10	-3,498
2895,222	-10	-3,498
2905,794	-10	-3,499
2916,377	-9,5	-3,499
2926,942	-9,5	-3,499
2937,526	-10	-3,498
2948,103	-9,5	-3,492
2958,681	-9,5	-3,48
2969,258	-9,5	-3,487
2979,817	-6,5	-3,232
2990,395	-7,5	-3,394
3000,972	-5	-2,995
3011,532	-6	-3,204
3022,103	-5,5	-3,231
3032,656	-7	-3,396
3043,228	-3	-2,47
3053,817	-3	-2,396
3064,377	-4,5	-2,913
3074,942	-3	-2,6
3085,513	-2	-2,036
3096,085	-1	-1,5
3106,662	-1	-1,195
3117,222	-0,5	-1,102
3127,781	-1	-1,255
3138,352	-1	-1,098
3148,906	-1	-1,039
3159,471	-1,5	-1,656
3165,399	2,5	-0,001