File: Cycling_tests/_newS/_2G60/entrada/_1.txt
Time (s)	Load (N)	Displacement (mm)
0	-0,1	-0,036
10,535	1,42	0
20,998	1,68	-0,002
31,468	1,9	-0,002
41,949	2,08	-0,004
52,437	2,2	-0,004
62,93	2,3	-0,005
73,399	2,38	-0,006
83,887	2,46	-0,007
94,368	2,54	-0,006
104,862	2,58	-0,004
115,349	2,66	-0,004
125,854	2,7	-0,004
136,348	2,74	-0,005
146,853	2,78	-0,004
157,358	2,82	-0,006
167,876	2,86	-0,004
178,375	2,88	-0,001
188,881	2,88	-0,015
199,416	1,56	-0,596
209,921	0,18	-0,903
220,421	0,14	-0,926
230,932	-1	-1,118
241,426	-0,18	-1,03
251,949	-1,56	-1,244
262,478	-3,06	-1,682
273,002	-4,08	-1,983
283,525	-5,86	-2,39
294,049	-6,54	-2,483
304,566	-7,32	-2,556
315,077	-6,5	-2,574
325,607	-5,54	-2,336
336,136	-4,54	-2,11
346,666	-2,86	-1,664
357,195	-2,24	-1,569
367,706	-1,1	-1,266
378,242	0,02	-0,964
388,789	0,68	-0,837
399,313	0,44	-0,926
409,86	-1,16	-1,202
420,383	-1,36	-1,285
430,919	-1,56	-1,348
441,46	-1,76	-1,404
452,008	-2,66	-1,697
462,543	-2,66	-1,731
473,084	-3,28	-1,863
483,608	-3,66	-2,016
494,149	-6,34	-2,544
504,691	-10,02	-3,215
515,214	-13,22	-3,448
525,761	-13,74	-3,488
536,303	-13,78	-3,495
546,85	-13,74	-3,498
557,392	-13,7	-3,387
567,921	-12,92	-3,118
578,456	-9,58	-2,671
589,004	-6,8	-2,197
599,545	-5,84	-1,998
610,075	-4,22	-1,683
620,616	-3,18	-1,52
631,157	-2,22	-1,268
641,681	-1,22	-0,978
652,204	1,52	-0,359
662,764	3,32	-0,049
673,337	3,58	-0,005
683,888	3,56	-0,001
694,43	3,54	-0,085
704,983	1,56	-0,735
715,513	-0,42	-1,22
726,048	-1,74	-1,537
736,595	-2,64	-1,852
747,155	-4,52	-2,306
757,69	-6,54	-2,768
768,219	-8,1	-3,215
778,761	-12,24	-3,429
789,302	-12,84	-3,462
799,85	-13,24	-3,493
810,379	-13,24	-3,497
820,903	-13,22	-3,499
831,444	-10,62	-2,845
841,973	-5,06	-2,041
852,539	-1,5	-1,174
863,08	1,12	-0,459
873,622	3,5	-0,03
884,175	3,7	-0,002
894,716	3,66	-0,217
905,264	1,46	-0,826
915,811	-1,36	-1,431
926,358	-3,2	-2,031
936,882	-4,64	-2,332
947,417	-6,18	-2,681
957,965	-8,52	-3,066
968,488	-10,6	-3,323
979,047	-12,72	-3,473
989,583	-12,98	-3,493
1000,1	-12,92	-3,5
1010,63	-11,3	-3,002
1021,171	-6,66	-2,303
1031,724	-2,22	-1,406
1042,248	-0,38	-0,924
1052,777	1,62	-0,38
1063,301	3,24	-0,069
1073,836	3,74	-0,018
1084,377	3,78	-0,003
1094,901	3,76	-0,001
1105,436	3,74	-0,078
1115,996	2,94	-0,491
1126,537	0,6	-0,941
1137,066	-1,1	-1,49
1147,614	-3,54	-2,102
1158,161	-5,42	-2,618
1168,703	-7,78	-3,141
1179,274	-11,34	-3,457
1189,827	-11,64	-3,494
1200,363	-11,38	-3,499
1210,886	-11,16	-3,497
1221,422	-10,78	-3,141
1231,969	-6,62	-2,628
1242,498	-4,48	-2,208
1253,046	-1,74	-1,564
1263,593	-0,26	-1,069
1274,105	0,7	-0,715
1284,64	1,8	-0,282
1295,181	3,42	-0,043
1305,741	3,74	-0,007
1316,288	3,74	-0,002
1326,836	3,72	0
1337,365	3,08	-0,365
1347,906	1,52	-0,789
1358,454	-0,02	-1,221
1369,001	-1,8	-1,716
1379,549	-2,34	-1,966
1390,066	-3,84	-2,445
1400,613	-5,4	-2,967
1411,149	-7,62	-3,338
1421,678	-9,26	-3,442
1432,208	-9,72	-3,488
1442,725	-9,68	-3,494
1453,266	-9,64	-3,498
1463,784	-9,58	-3,486
1474,325	-8,96	-3,094
1484,855	-6,74	-2,839
1495,378	-5,72	-2,554
1505,913	-3,52	-2,236
1516,455	-2,34	-1,924
1526,996	-1,12	-1,529
1537,532	-0,52	-1,27
1548,079	0,42	-0,838
1558,644	1,82	-0,258
1569,186	2,98	-0,095
1579,721	3,58	-0,018
1590,245	3,66	-0,009
1600,78	3,66	-0,004
1611,309	3,66	-0,005
1621,833	3,66	-0,004
1632,392	3,62	-0,001
1642,922	3,64	-0,001
1653,457	3,6	-0,152
1663,998	3,22	-0,426
1674,528	2,54	-0,545
1685,057	1,28	-0,86
1695,587	0,88	-0,928
1706,122	-0,18	-1,195
1716,657	-1,26	-1,623
1727,187	-1,96	-1,966
1737,722	-2,68	-2,284
1748,252	-3,92	-2,748
1758,781	-5,4	-3,069
1769,322	-7,54	-3,423
1779,858	-8,66	-3,474
1790,381	-8,78	-3,488
1800,934	-8,78	-3,495
1811,446	-8,76	-3,498
1821,969	-8,7	-3,499
1832,505	-8,66	-3,414
1843,04	-8,06	-3,063
1853,593	-4,46	-2,558
1864,135	-2,44	-2,054
1874,646	-1,36	-1,74
1885,194	-0,12	-1,176
1895,717	0,16	-0,959
1906,264	1	-0,624
1916,806	1,96	-0,251
1927,347	3,08	-0,064
1937,889	3,36	-0,03
1948,436	3,52	-0,007
1958,959	3,54	-0,003
1969,513	3,52	-0,001
1980,048	3,5	-0,154
1990,584	1,6	-0,758
2001,119	0,82	-0,926
2011,666	-0,12	-1,236
2022,196	-0,56	-1,492
2032,737	-1,5	-1,826
2043,261	-1,3	-1,764
2053,796	-0,76	-1,481
2064,325	-1,1	-1,69
2074,849	-0,66	-1,512
2085,396	0,34	-1,077
2095,932	2,48	-0,523
2106,473	3,48	-0,005
2116,996	3,48	-0,002
2127,52	3,48	-0,005
2138,055	3,16	-0,047
2148,579	0,14	-1,025
2159,102	-2,04	-1,969
2169,619	-5,74	-2,858
2180,149	-8,02	-3,499
2190,684	-8,02	-3,495
2201,214	-7,16	-3,434
2211,755	-4,58	-3,077
2222,272	-2,58	-2,418
2232,808	-0,52	-1,396
2243,325	-0,66	-1,46
2253,837	0,22	-1,157
2264,396	0	-1,187
2274,937	0,64	-1,083
2285,449	1,68	-0,716
2296,002	3,4	-0,228
2306,544	3,4	-0,001
2317,073	3,42	-0,004
2327,614	3,38	-0,009
2338,144	2,48	-0,116
2348,685	1,96	-0,167
2359,203	0,4	-0,87
2369,756	-1,56	-1,898
2380,291	-3,78	-2,521
2390,833	-4,96	-2,763
2401,362	-6,46	-3,049
2411,94	-6,62	-3,134
2422,493	-7,34	-3,445
2433,058	-7,34	-3,499
2443,606	-7,34	-3,496
2454,153	-7,18	-3,481
2464,677	-6,24	-3,412
2475,212	-3,2	-2,762
2485,741	-1,38	-2,121
2496,259	0,02	-1,244
2506,782	3,28	-0,2
2517,312	3,3	-0,004
2527,829	2,76	-0,075
2538,352	0,26	-0,915
2548,876	-1,44	-1,822
2559,405	-3,66	-2,602
2569,935	-7,08	-3,499
2580,458	-7,02	-3,491
2591,005	-6,46	-3,439
2601,547	-4,22	-3,102
2612,064	-1,46	-2,117
2622,6	-0,76	-1,776
2633,135	0,02	-1,334
2643,67	0,62	-0,95
2654,2	2,46	-0,462
2664,723	3,22	-0,001
2675,247	3,24	-0,001
2685,782	3,22	-0,003
2696,323	3,2	-0,005
2706,847	3,04	-0,024
2717,37	1,3	-0,333
2727,906	1	-0,509
2738,429	0,54	-0,698
2748,97	-0,1	-1,222
2759,518	-1,2	-1,79
2770,047	-2,46	-2,279
2780,553	-4,64	-2,908
2791,082	-6,64	-3,344
2801,611	-6,64	-3,499
2812,141	-6,64	-3,498
2822,676	-6,6	-3,494
2833,218	-6,5	-3,484
2843,741	-4,98	-3,395
2854,276	-3,38	-2,982
2864,806	-2,38	-2,563
2875,341	-1,9	-2,43
2885,859	-1,08	-2,014
2896,376	-0,7	-1,742
2906,893	0,16	-1,163
2917,423	2,38	-0,484
2927,946	3,08	-0,121
2938,469	3,08	0
2949,011	3,08	-0,001
2959,534	3,08	-0,002
2970,04	3,06	-0,004
2980,563	3,04	-0,008
2991,092	2,86	-0,021
3001,64	2,88	-0,024
3012,163	1,56	-0,145
3022,705	0,28	-0,912
3033,24	-0,74	-1,61
3043,757	-2,88	-2,519
3054,287	-5,78	-3,13
3064,804	-6,24	-3,498
3075,328	-6,12	-3,484
3085,869	-4,76	-3,322
3096,392	-2,66	-2,814
3106,928	-1,82	-2,41
3117,457	-0,9	-1,932
3127,981	-0,44	-1,557
3138,498	0,14	-1,216
3149,021	0,78	-0,89
3157,283	2,96	-0,001