File: Cycling_tests/_newS/_2G60/entrada/_3.txt
Time (s)	Load (N)	Displacement (mm)
0	-0,16	-0,035
10,858	1,26	-0,001
21,598	1,58	-0,004
32,343	1,76	-0,005
43,101	1,8	-0,022
53,876	1,78	-0,042
64,645	1,14	-0,091
75,391	-6,78	-1,693
86,172	-9,32	-2,329
96,918	-11,48	-2,673
107,693	-12	-2,739
118,468	-11,32	-2,693
129,22	-12,02	-2,745
140,013	-11,38	-2,558
150,8	-9,44	-2,393
161,57	-10,28	-2,499
172,393	-8,5	-2,267
183,216	-6,38	-1,902
193,986	-5,92	-1,903
204,803	-5,16	-1,796
215,585	-6,04	-1,864
226,384	-5,24	-1,73
237,195	-5,12	-1,702
247,995	-5,16	-1,733
258,8	-3,66	-1,553
269,624	-2,6	-1,246
280,417	-2,42	-1,228
291,21	-2,42	-1,161
302,022	-1,78	-1,042
312,839	-0,58	-0,734
323,65	0,4	-0,462
334,456	1,12	-0,255
345,261	1,66	-0,147
356,073	2,22	-0,09
366,872	2,6	-0,051
377,689	2,86	-0,018
388,477	2,9	-0,016
399,276	2,96	-0,012
410,069	3	-0,007
420,869	3,02	-0,007
431,668	3,02	-0,005
442,492	3,02	-0,002
453,309	3,02	-0,002
464,108	3,02	-0,001
474,914	3,04	-0,002
485,731	3,04	-0,001
496,537	3,04	-0,001
507,354	3,02	-0,018
518,171	3,02	-0,242
528,995	2,44	-0,431
539,818	1,48	-0,732
550,617	0,46	-0,941
561,435	-0,64	-1,154
572,24	-0,68	-1,104
583,076	-1,24	-1,307
593,899	-2,3	-1,587
604,698	-2,38	-1,609
615,516	-2,96	-1,775
626,345	-3,72	-2,042
637,162	-3,7	-2,037
648,01	-4,76	-2,347
658,821	-4,86	-2,339
669,621	-5,42	-2,477
680,432	-5,76	-2,443
691,249	-6,42	-2,704
702,061	-6,64	-2,717
712,86	-6,64	-2,744
723,684	-7,2	-2,868
734,501	-8,16	-2,977
745,318	-8,08	-2,987
756,148	-8,34	-3,01
766,971	-9,04	-3,142
777,801	-9,86	-3,326
788,624	-9,64	-3,269
799,447	-9	-3,141
810,247	-9,4	-3,21
821,082	-9,56	-3,247
831,911	-10,8	-3,34
842,723	-9,88	-3,224
853,546	-8,92	-3,202
864,364	-9,5	-3,213
875,193	-9,2	-3,242
886,004	-10,94	-3,35
896,804	-8,96	-3,14
907,621	-7,7	-2,937
918,42	-6,48	-2,771
929,226	-5,7	-2,575
940,019	-4,36	-2,269
950,831	-3,14	-2,054
961,666	-3,3	-2,065
972,483	-3,02	-2,006
983,301	-3,28	-2,002
994,088	-2,38	-1,852
1004,899	-3,36	-2,087
1015,705	-4	-2,22
1026,522	-4,14	-2,252
1037,346	-2,8	-1,963
1048,139	-2,02	-1,732
1058,944	-1,38	-1,518
1069,75	-1,42	-1,454
1080,561	-1,32	-1,53
1091,373	-0,8	-1,24
1102,184	0,24	-1,167
1112,977	-0,3	-1,122
1123,789	-0,36	-1,167
1134,564	0,26	-0,968
1145,369	0,26	-0,982
1156,175	0,42	-0,987
1166,986	0,52	-0,958
1177,804	0,14	-1,011
1188,603	0,26	-0,975
1199,396	0,46	-0,956
1210,196	0,96	-0,909
1221,007	1,04	-0,777
1231,824	1,18	-0,826
1242,642	2	-0,56
1253,423	3	-0,487
1264,259	1,66	-0,657
1275,052	2,62	-0,521
1285,857	2,32	-0,52
1296,669	2,48	-0,506
1307,48	2,48	-0,471
1318,274	2,06	-0,593
1329,085	1,54	-0,743
1339,914	1,16	-0,782
1350,714	1,48	-0,682
1361,513	1,72	-0,617
1372,312	1,84	-0,608
1383,13	0,7	-0,817
1393,947	0,6	-0,881
1404,771	2,02	-0,618
1415,576	1,34	-0,803
1426,369	0,86	-0,837
1437,175	0,02	-1,097
1447,998	-0,78	-1,409
1458,816	-1,16	-1,617
1469,651	-1,82	-1,878
1480,468	-2,38	-2,111
1491,262	-2,38	-2,077
1502,097	-2,9	-2,412
1512,932	-3,64	-2,646
1523,744	-4,24	-2,777
1534,543	-4,92	-2,951
1545,349	-5,12	-3,026
1556,16	-6,88	-3,32
1566,989	-8,08	-3,457
1577,789	-8,12	-3,459
1588,606	-8	-3,451
1599,417	-7,8	-3,428
1610,241	-7,86	-3,436
1621,034	-7,66	-3,415
1631,828	-5,94	-3,334
1642,639	-6,16	-3,282
1653,457	-5,08	-3,05
1664,28	-4,82	-3,011
1675,079	-4,16	-2,842
1685,885	-3,56	-2,708
1696,69	-3,46	-2,68
1707,495	-2,14	-2,323
1718,289	-1,86	-2,043
1729,082	-1,24	-1,796
1739,893	-1,12	-1,65
1750,717	-1,36	-1,813
1761,522	-1,38	-1,844
1772,346	-1,78	-2,002
1783,145	-1,74	-1,992
1793,956	-1,94	-2,227
1804,756	-1,64	-2,064
1815,561	-1,9	-2,126
1826,379	-2,1	-2,196
1837,19	-2,08	-2,225
1848,007	-1,98	-2,15
1858,813	-1,64	-2,081
1869,612	-1,34	-1,922
1880,429	-1,12	-1,747
1891,229	-0,98	-1,662
1902,052	-1,14	-1,773
1912,84	-1	-1,586
1923,657	-1,18	-1,762
1934,486	-1,06	-1,811
1945,298	-1,06	-1,729
1956,109	-1	-1,746
1966,921	-0,9	-1,652
1977,72	-0,36	-1,291
1988,525	-0,16	-1,196
1999,337	0	-1,123
2010,13	0,1	-1,01
2020,911	1,12	-0,76
2031,729	1,44	-0,617
2042,522	2,5	-0,422
2053,334	2,72	-0,312
2064,145	2,96	-0,031
2074,944	2,96	-0,001
2085,744	2,98	-0,002
2096,543	2,98	-0,003
2107,36	2,96	-0,004
2118,16	2,94	-0,004
2128,953	2,94	-0,004
2139,765	2,94	-0,004
2150,564	2,94	-0,004
2161,351	2,88	-0,008
2172,163	2,92	-0,004
2182,974	2,88	-0,006
2193,774	2,88	-0,007
2204,573	2,9	-0,007
2215,378	2,88	-0,008
2226,196	2,88	-0,008
2236,989	2,88	-0,007
2247,806	2,84	-0,008
2258,594	2,82	-0,013
2269,393	2,76	-0,02
2280,199	2,44	-0,038
2291,022	2,52	-0,041
2301,809	2,42	-0,064
2312,609	1,86	-0,15
2323,39	1,46	-0,247
2334,19	1,44	-0,199
2345,001	2,3	-0,051
2355,812	2,28	-0,062
2366,636	2,74	-0,013
2377,459	2,8	-0,002
2388,258	2,76	0
2399,064	2,74	0
2409,875	2,74	-0,001
2420,669	2,76	-0,001
2431,498	2,74	-0,001
2442,303	2,72	-0,002
2453,115	2,72	-0,002
2463,932	2,72	-0,001
2474,743	2,7	-0,002
2485,555	2,7	-0,002
2496,36	2,68	-0,001
2507,16	2,7	-0,002
2517,971	2,68	-0,003
2528,776	2,68	-0,005
2539,594	2,66	-0,004
2550,381	2,6	-0,012
2561,193	2,58	-0,016
2572,016	2,62	-0,01
2582,833	2,62	-0,011
2593,651	2,62	-0,007
2604,444	2,6	-0,01
2615,243	2,6	-0,012
2626,073	2,6	-0,011
2636,854	2,6	-0,008
2647,678	2,62	-0,006
2658,477	2,62	-0,006
2669,294	2,62	-0,003
2680,094	2,62	-0,002
2690,887	2,62	-0,002
2701,711	2,6	-0,002
2712,51	2,6	-0,002
2723,321	2,6	-0,001
2734,109	2,58	-0,001
2744,92	2,58	-0,001
2755,731	2,58	-0,001
2766,525	2,58	-0,001
2777,33	2,56	-0,001
2788,124	2,56	-0,001
2798,917	2,54	-0,001
2809,716	2,54	0
2820,534	2,54	-0,041
2831,339	2,52	-0,03
2842,144	2,52	-0,045
2852,962	2,5	-0,124
2863,773	1,88	-0,39
2874,567	2,14	-0,392
2885,36	2,16	-0,342
2896,171	1,62	-0,456
2906,971	0,86	-0,65
2917,806	0,54	-0,835
2928,6	0	-1,236
2939,411	0	-1,254
2950,222	-0,16	-1,4
2961,052	-0,46	-1,578
2971,839	-0,6	-1,795
2982,638	-0,42	-1,678
2993,432	-0,52	-1,65
3004,237	-0,72	-1,898
3015,043	-0,86	-2,078
3025,842	-0,78	-1,962
3036,629	-0,66	-1,796
3047,429	-1,02	-2,079
3058,252	-1,34	-2,411
3069,046	-1,74	-2,616
3079,845	-1,46	-2,474
3090,65	-1,54	-2,557
3101,45	-1,9	-2,718
3112,261	-2,36	-2,879
3123,066	-3	-3,15
3133,866	-3,26	-3,236
3144,677	-4	-3,394
3155,489	-5,08	-3,482
3166,294	-5,2	-3,497
3177,087	-5,2	-3,498
3187,881	-5,18	-3,499
3198,68	-5,16	-3,5
3209,479	-5,14	-3,426
3220,273	-4,72	-3,178
3231,078	-5,12	-3,359
3240,738	2,34	0