File: ensaios_Ciclicos/_newS/_3G50/entrada/_1.txt
Time (s)	Load (N)	Displacement (mm)
0	-0,1	-0,026
10,545	1,52	-0,001
21,08	1,92	-0,003
31,604	2,18	-0,008
42,121	2,22	-0,027
52,663	2	-0,058
63,21	2,1	-0,064
73,745	0,84	-0,158
84,275	0,74	-0,264
94,81	-0,1	-0,356
105,34	-1,24	-0,732
115,869	-4,82	-1,348
126,404	-7,44	-1,8
136,94	-10,44	-2,3
147,475	-13,56	-2,717
157,999	-17,64	-3,499
168,552	-17,62	-3,497
179,105	-17,06	-3,471
189,629	-14,82	-3,331
200,17	-8,56	-2,535
210,7	-5,02	-2,046
221,235	-4,86	-1,956
231,788	-6,36	-2,188
242,324	-5,06	-2,092
252,859	-4,78	-1,978
263,407	-6,12	-2,182
273,948	-5,3	-2,036
284,495	-3,46	-1,696
295,037	-2,56	-1,592
305,578	-1,02	-1,255
316,12	-0,24	-0,964
326,649	1,32	-0,786
337,196	3,18	-0,44
347,726	3,86	-0,306
358,279	3,12	-0,402
368,832	3,88	-0,212
379,404	3,48	-0,389
389,981	2,66	-0,561
400,553	1	-0,906
411,124	0,22	-1,001
421,689	-0,76	-1,212
432,261	-2,44	-1,594
442,826	-3,6	-1,855
453,41	-5,7	-2,275
463,999	-9,68	-2,903
474,564	-11,04	-3,113
485,154	-15	-3,444
495,719	-15,86	-3,481
506,303	-16,06	-3,494
516,892	-16,04	-3,498
527,481	-15,96	-3,5
538,059	-15,18	-3,093
548,594	-15,6	-3,196
559,16	-14,92	-3,087
569,755	-9,98	-2,464
580,332	-8,66	-2,318
590,904	-5,52	-1,878
601,463	-3,06	-1,419
612,071	-1,28	-1,024
622,618	-0,6	-0,878
633,219	0,84	-0,619
643,839	1,96	-0,369
654,422	1	-0,513
664,988	-0,34	-0,831
675,547	-0,42	-0,865
686,148	-0,08	-0,729
696,738	0,28	-0,719
707,333	-0,08	-0,734
717,905	-0,74	-0,949
728,488	-1,32	-1,018
739,077	-1,76	-1,205
749,661	-2,56	-1,36
760,232	-2,52	-1,41
770,816	-3,06	-1,52
781,387	-4,22	-1,602
791,964	-4,7	-1,775
802,554	-5,56	-1,91
813,143	-6,72	-2,06
823,738	-6,46	-2,059
834,328	-4,24	-1,753
844,917	-3,58	-1,58
855,501	-2,6	-1,378
866,072	-1,86	-1,268
876,691	-0,8	-1,03
887,281	-0,82	-0,988
897,858	-0,12	-0,839
908,442	2,02	-0,406
919,013	1,8	-0,404
929,602	1,72	-0,411
940,18	1,94	-0,36
950,757	1,72	-0,401
961,353	2,04	-0,289
971,936	2,52	-0,196
982,519	3,42	-0,127
993,121	3,48	-0,117
1003,728	3,32	-0,111
1014,312	3,44	-0,104
1024,901	4,24	-0,054
1035,49	4,34	-0,04
1046,092	4,44	-0,034
1056,693	4,34	-0,043
1067,265	4	-0,077
1077,848	2,6	-0,177
1088,449	3,74	-0,074
1099,039	4,38	-0,043
1109,628	4,64	-0,018
1120,206	4,6	-0,022
1130,771	4,6	-0,026
1141,36	4,62	-0,022
1151,938	4,64	-0,023
1162,533	4,68	-0,015
1173,117	4,52	-0,03
1183,694	4,56	-0,028
1194,277	4,46	-0,04
1204,861	4,34	-0,048
1215,462	4,3	-0,068
1226,057	3,14	-0,165
1236,665	3,3	-0,146
1247,29	3,28	-0,173
1257,892	2,46	-0,276
1268,499	2,96	-0,26
1279,1	3,96	-0,093
1289,702	4,58	-0,03
1300,309	4,72	-0,009
1310,923	4,72	-0,002
1321,512	4,68	-0,152
1332,095	2,86	-0,611
1342,685	1,3	-0,97
1353,268	0,04	-1,262
1363,846	-0,38	-1,35
1374,429	-0,76	-1,546
1385,018	-2,46	-1,917
1395,578	-2,88	-2,025
1406,185	-4,38	-2,437
1416,769	-4,66	-2,56
1427,364	-5,92	-2,832
1437,935	-8,12	-3,162
1448,507	-9,24	-3,366
1459,084	-10,78	-3,439
1469,68	-11,46	-3,479
1480,299	-11,64	-3,496
1490,894	-11,56	-3,498
1501,478	-11,5	-3,499
1512,073	-11,42	-3,499
1522,657	-11,3	-3,498
1533,24	-11,2	-3,383
1543,835	-10,6	-3,101
1554,431	-9,16	-2,986
1565,026	-7,74	-2,778
1575,616	-7,28	-2,71
1586,193	-7,64	-2,75
1596,782	-7,1	-2,743
1607,372	-5,8	-2,52
1617,949	-6,22	-2,524
1628,544	-4,88	-2,379
1639,122	-3,44	-2,154
1649,717	-2,26	-1,86
1660,325	-1,44	-1,639
1670,908	-0,62	-1,394
1681,474	-0,9	-1,49
1692,093	-0,52	-1,384
1702,7	-0,26	-1,29
1713,296	0,16	-1,167
1723,891	0,24	-1,166
1734,498	0,32	-1,04
1745,082	0,08	-1,114
1755,671	0,36	-1,127
1766,285	0,26	-1,035
1776,916	1,24	-0,711
1787,541	1,48	-0,564
1798,143	2,5	-0,271
1808,732	2,7	-0,25
1819,304	2,44	-0,338
1829,905	1,92	-0,463
1840,488	1,82	-0,505
1851,078	1,14	-0,725
1861,667	1,24	-0,748
1872,263	1,68	-0,608
1882,852	0,78	-0,929
1893,435	0,32	-1,024
1904,031	0,7	-0,895
1914,596	0,72	-0,88
1925,18	0,78	-0,944
1935,787	1,02	-0,818
1946,37	1,86	-0,478
1956,942	1,8	-0,549
1967,537	2,42	-0,345
1978,127	3,52	-0,079
1988,704	3,48	-0,087
1999,269	3,48	-0,084
2009,847	4,1	-0,039
2020,43	4,22	-0,024
2031,008	4,18	-0,023
2041,591	4,32	-0,021
2052,18	4,22	-0,028
2062,77	4,04	-0,044
2073,347	3,02	-0,162
2083,942	2,62	-0,19
2094,52	1,66	-0,514
2105,115	1,24	-0,716
2115,693	0,52	-1,054
2126,27	0	-1,298
2136,865	-0,54	-1,552
2147,455	-1,66	-1,819
2158,02	-2,3	-1,999
2168,598	-2,36	-2,039
2179,181	-2,6	-2,2
2189,77	-2,94	-2,249
2200,354	-3,1	-2,275
2210,949	-2,68	-2,204
2221,539	-2,98	-2,34
2232,14	-3,3	-2,34
2242,735	-3,54	-2,333
2253,307	-4,54	-2,589
2263,878	-5,48	-2,81
2274,462	-6,3	-2,83
2285,069	-6,9	-2,87
2295,628	-8,36	-3,227
2306,206	-8,02	-3,208
2316,789	-8,3	-3,16
2327,373	-7,76	-3,132
2337,944	-7,72	-3,097
2348,515	-6,86	-2,991
2359,111	-4,86	-2,74
2369,694	-3,3	-2,405
2380,278	-2,72	-2,267
2390,849	-1,96	-2,099
2401,438	-1,7	-1,978
2412,01	-0,94	-1,704
2422,605	-0,12	-1,414
2433,183	0,2	-1,168
2443,76	0,58	-0,917
2454,337	1	-0,724
2464,915	1,62	-0,455
2475,504	2,62	-0,19
2486,088	2,78	-0,16
2496,665	3,26	-0,096
2507,278	3,82	-0,033
2517,862	4,08	-0,011
2528,451	4,08	-0,005
2539,028	4,08	-0,002
2549,606	4,06	-0,001
2560,195	4,02	-0,097
2570,785	3,32	-0,455
2581,362	2,36	-0,627
2591,939	0,9	-1,048
2602,541	-0,68	-1,645
2613,136	-1,38	-2,056
2623,708	-1,86	-2,314
2634,297	-2,78	-2,641
2644,88	-3,32	-2,832
2655,47	-5,82	-3,338
2666,089	-7,1	-3,474
2676,685	-7,32	-3,492
2687,292	-7,3	-3,498
2697,863	-7,26	-3,499
2708,447	-6,42	-3,11
2719,03	-3,9	-2,645
2729,608	-2,48	-2,308
2740,185	-1,28	-1,908
2750,768	-0,32	-1,466
2761,346	0,24	-1,172
2771,917	0,68	-0,882
2782,501	1,22	-0,569
2793,096	2,5	-0,122
2803,673	3,46	-0,037
2814,269	3,78	-0,011
2824,828	3,82	-0,007
2835,424	3,84	-0,002
2845,989	3,8	-0,001
2856,566	3,8	-0,234
2867,138	1,74	-0,688
2877,745	0,18	-1,239
2888,311	-0,2	-1,517
2898,906	-1,32	-2,144
2909,489	-2,38	-2,622
2920,073	-3,12	-2,91
2930,662	-3,88	-3,078
2941,245	-3,98	-3,121
2951,823	-3,84	-3,149
2962,406	-5,08	-3,366
2973,002	-5,44	-3,392
2983,579	-6,18	-3,445
2994,156	-6,54	-3,47
3004,74	-6,68	-3,482
3015,317	-6,72	-3,491
3025,901	-6,76	-3,497
3036,502	-6,76	-3,498
3047,085	-6,74	-3,497
3057,669	-6,72	-3,498
3068,252	-6,72	-3,498
3078,848	-6,7	-3,498
3089,431	-6,68	-3,498
3100,02	-6,68	-3,499
3110,604	-6,64	-3,499
3121,187	-6,62	-3,5
3131,765	-6,6	-3,497
3142,348	-6,58	-3,4
3152,943	-6,54	-3,5
3163,545	-6,5	-3,26
3168,747	3,64	0