File: ensaios_Ciclicos/_newS/_3G50/entrada/_2.txt
Time (s)	Load (N)	Displacement (mm)
0	-0,08	-0,035
10,792	1,56	-0,066
21,532	2	-0,001
32,265	2,34	-0,002
42,999	2,5	-0,013
53,768	2,64	-0,02
64,514	2,38	-0,05
75,295	2,62	-0,049
86,058	2,54	-0,058
96,822	2,78	-0,057
107,609	2,94	-0,042
118,39	2,98	-0,048
129,154	2,82	-0,06
139,923	3	-0,059
150,68	3	-0,077
161,432	2	-0,148
172,213	2,08	-0,127
182,971	2,4	-0,118
193,74	2,38	-0,156
204,504	0,92	-0,38
215,285	0,58	-0,442
226,084	0,6	-0,458
236,878	0,48	-0,545
247,665	0,08	-0,566
258,44	0,06	-0,639
269,228	0,36	-0,533
280,021	1,64	-0,251
290,796	1,36	-0,357
301,572	1,8	-0,258
312,347	2,18	-0,24
323,153	2,1	-0,256
333,94	2,34	-0,173
344,733	2,58	-0,18
355,509	3,4	-0,095
366,302	3,54	-0,107
377,096	3,94	-0,049
387,883	4,28	-0,026
398,676	4,38	-0,015
409,482	4,46	-0,005
420,269	4,48	-0,004
431,068	4,48	-0,002
441,868	4,5	-0,002
452,667	4,52	-0,002
463,485	4,54	-0,002
474,296	4,56	-0,003
485,101	4,54	-0,001
495,901	4,56	-0,001
506,7	4,6	-0,002
517,542	4,58	-0,001
528,341	4,62	-0,001
539,14	4,64	-0,001
549,928	4,66	-0,001
560,733	4,66	-0,001
571,544	4,7	-0,002
582,356	4,7	-0,002
593,143	4,74	-0,003
603,949	4,76	-0,003
614,736	4,76	-0,002
625,529	4,78	-0,004
636,329	4,8	-0,007
647,134	4,82	-0,006
657,957	4,82	-0,002
668,763	4,78	-0,001
679,574	4,78	-0,001
690,356	4,78	0
701,155	4,8	0
711,96	4,14	-0,346
722,766	1,82	-0,867
733,547	-0,1	-1,193
744,359	-3,16	-1,855
755,158	-5,78	-2,318
765,951	-5,54	-2,438
776,763	-6,88	-2,573
787,562	-7,22	-2,621
798,367	-8,54	-2,849
809,155	-10,06	-3,008
819,984	-12,74	-3,355
830,796	-13,28	-3,4
841,607	-13,98	-3,428
852,412	-14,7	-3,446
863,2	-14,02	-3,44
873,987	-13,18	-3,406
884,775	-13,84	-3,418
895,574	-13,62	-3,43
906,373	-14,44	-3,458
917,161	-15,04	-3,479
927,972	-14,96	-3,472
938,783	-15,14	-3,487
949,589	-15,16	-3,491
960,4	-15,16	-3,492
971,218	-15,14	-3,492
982,029	-15,1	-3,489
992,828	-14,96	-3,485
1003,634	-14,98	-3,484
1014,433	-14,68	-3,473
1025,25	-14,36	-3,458
1036,038	-13,7	-3,43
1046,831	-12,42	-3,395
1057,661	-13,26	-3,412
1068,454	-12,66	-3,397
1079,271	-12,56	-3,39
1090,065	-12,22	-3,354
1100,882	-11,52	-3,303
1111,682	-12,5	-3,372
1122,481	-10,34	-3,28
1133,286	-10,32	-3,261
1144,116	-11,52	-3,317
1154,915	-10,92	-3,274
1165,75	-11,36	-3,353
1176,55	-12,76	-3,415
1187,355	-12,32	-3,412
1198,167	-11,68	-3,406
1208,966	-12,32	-3,411
1219,777	-12,5	-3,414
1230,583	-11,96	-3,402
1241,394	-11,8	-3,394
1252,176	-9,16	-3,167
1262,981	-7,02	-2,858
1273,78	-6,78	-2,832
1284,586	-6,86	-2,848
1295,379	-5,4	-2,552
1306,19	-6,22	-2,682
1316,996	-6,66	-2,834
1327,789	-8,26	-3,045
1338,589	-8,54	-3,104
1349,4	-9,54	-3,304
1360,187	-9,96	-3,33
1370,993	-11,48	-3,433
1381,786	-12,06	-3,448
1392,592	-12,26	-3,47
1403,397	-12,52	-3,486
1414,196	-12,44	-3,488
1424,996	-12,4	-3,49
1435,795	-12,32	-3,491
1446,612	-12,26	-3,498
1457,418	-12,12	-3,499
1468,211	-12,02	-3,499
1479,023	-11,9	-3,338
1489,84	-11,58	-3,21
1500,675	-9,76	-2,964
1511,499	-7,92	-2,666
1522,322	-6,86	-2,488
1533,127	-4,76	-2,195
1543,933	-3,5	-2,008
1554,714	-3,18	-2,005
1565,52	-1,9	-1,67
1576,313	-0,46	-1,354
1587,124	0,16	-1,183
1597,93	0,52	-1,019
1608,717	0,96	-0,865
1619,487	1,38	-0,748
1630,28	1,58	-0,66
1641,085	2,26	-0,535
1651,897	2,54	-0,358
1662,696	2,64	-0,264
1673,489	3,04	-0,25
1684,289	3,3	-0,218
1695,094	3,88	-0,104
1705,87	4,08	-0,103
1716,675	3,92	-0,097
1727,498	4,58	-0,069
1738,292	4,48	-0,053
1749,085	4,84	-0,032
1759,897	5,02	-0,018
1770,69	5	-0,014
1781,507	5,06	-0,005
1792,313	5,06	-0,003
1803,13	5,04	-0,001
1813,947	5	0
1824,747	4,98	-0,202
1835,57	3,42	-0,536
1846,376	1,62	-0,97
1857,175	0,3	-1,268
1867,974	0,14	-1,349
1878,78	-1,14	-1,699
1889,591	-1,84	-1,882
1900,402	-2,16	-2,113
1911,226	-3,04	-2,286
1922,031	-4,88	-2,786
1932,831	-6,28	-3,073
1943,654	-6,4	-3,177
1954,459	-6,4	-3,203
1965,283	-7,5	-3,314
1976,1	-8,7	-3,402
1986,894	-8,26	-3,414
1997,723	-8,98	-3,424
2008,51	-8,3	-3,39
2019,304	-8,98	-3,422
2030,109	-9,26	-3,462
2040,902	-9,06	-3,444
2051,702	-9,18	-3,45
2062,495	-9,14	-3,443
2073,283	-8,04	-3,379
2084,07	-6,14	-3,18
2094,863	-6,06	-3,135
2105,669	-6,3	-3,212
2116,474	-6,8	-3,345
2127,292	-7,42	-3,342
2138,091	-8,22	-3,406
2148,896	-8,1	-3,406
2159,69	-8,12	-3,396
2170,483	-8,16	-3,418
2181,294	-8,02	-3,398
2192,1	-7,16	-3,343
2202,923	-6,44	-3,323
2213,729	-6,24	-3,247
2224,534	-6,02	-3,228
2235,345	-5,52	-3,272
2246,145	-7,1	-3,377
2256,95	-6,2	-3,314
2267,756	-7,18	-3,406
2278,567	-7,88	-3,413
2289,366	-6,56	-3,332
2300,172	-6,86	-3,368
2310,989	-7,54	-3,412
2321,782	-7,82	-3,42
2332,576	-7,28	-3,439
2343,381	-8,38	-3,466
2354,181	-8,28	-3,46
2364,998	-8,4	-3,476
2375,785	-8,48	-3,489
2386,579	-8,4	-3,483
2397,39	-8,38	-3,488
2408,189	-8,34	-3,492
2418,983	-8,4	-3,493
2429,794	-8,36	-3,498
2440,582	-8,3	-3,499
2451,375	-8,28	-3,499
2462,162	-8,22	-3,499
2472,956	-8,22	-3,499
2483,755	-8,16	-3,499
2494,561	-8,12	-3,499
2505,342	-8,08	-3,499
2516,141	-8,02	-3,499
2526,935	-8	-3,499
2537,734	-7,94	-3,499
2548,539	-7,86	-3,434
2559,333	-7,5	-3,238
2570,12	-7,6	-3,142
2580,92	-5,7	-2,842
2591,719	-4,86	-2,714
2602,512	-3,92	-2,568
2613,306	-3,32	-2,48
2624,087	-3,1	-2,436
2634,88	-2,7	-2,364
2645,668	-2,52	-2,28
2656,449	-2,26	-2,13
2667,249	-1,46	-1,874
2678,042	-0,94	-1,724
2688,829	-0,62	-1,569
2699,623	-0,58	-1,599
2710,422	-0,32	-1,497
2721,222	0,14	-1,268
2732,003	0,34	-1,165
2742,79	0,14	-1,23
2753,59	0,26	-1,107
2764,383	0,4	-1,078
2775,177	0,92	-0,847
2785,97	1,46	-0,63
2796,775	2,1	-0,34
2807,581	2,8	-0,164
2818,386	3,82	-0,054
2829,167	4,16	-0,032
2839,967	4,26	-0,02
2850,772	4,22	-0,02
2861,572	4,28	-0,014
2872,359	4,32	-0,008
2883,164	4,36	-0,004
2893,964	4,34	-0,001
2904,763	4,3	-0,065
2915,562	3,64	-0,351
2926,398	1,84	-0,799
2937,197	1,66	-0,943
2947,997	0,5	-1,264
2958,79	-0,02	-1,478
2969,613	-0,76	-1,902
2980,413	-1,54	-2,276
2991,218	-2,32	-2,53
3002,018	-2,88	-2,747
3012,823	-3,84	-3,056
3023,64	-5,64	-3,4
3034,44	-6,36	-3,452
3045,239	-6,76	-3,481
3056,044	-6,86	-3,493
3066,862	-6,86	-3,498
3077,667	-6,8	-3,5
3088,467	-6,5	-3,202
3099,266	-4,9	-2,842
3110,065	-2,96	-2,448
3120,877	-1,36	-1,983
3131,676	-0,86	-1,78
3142,469	-0,14	-1,475
3153,263	0,54	-1,014
3164,074	1,56	-0,48
3174,85	2,74	-0,162
3185,673	4,06	-0,018
3196,466	4,14	-0,006
3207,26	4,16	-0,002
3218,053	4,14	0
3228,859	4,12	-0,267
3233,076	4,12	-0,001