File: ensaios_Ciclicos/_newS/_3G50/entrada/_3.txt
Time (s)	Load (N)	Displacement (mm)
0	-0,1	-0,035
10,769	1,04	-0,292
21,466	1,54	-0,325
32,17	1,42	-0,442
42,861	1,58	-0,386
53,559	2,02	-0,35
64,268	2,26	-0,353
74,965	2,68	-0,107
85,67	2,78	-0,136
96,366	2,88	-0,089
107,076	2,96	-0,136
117,797	3,04	-0,001
128,5	3,14	-0,001
139,21	3,24	-0,001
149,919	3,3	-0,002
160,634	3,36	-0,002
171,338	3,44	-0,005
182,059	3,48	-0,006
192,793	3,54	-0,006
203,52	3,58	-0,006
214,235	3,62	-0,009
224,963	3,64	-0,01
235,69	3,66	-0,012
246,418	3,68	-0,018
257,139	3,56	-0,027
267,878	3,64	-0,026
278,636	3,72	-0,02
289,369	3,82	-0,014
300,108	3,86	-0,013
310,854	3,86	-0,018
321,605	3,92	-0,014
332,357	3,98	-0,006
343,102	4,02	-0,002
353,853	4,04	-0,002
364,593	4,04	-0,001
375,35	4,06	-0,001
386,107	4,06	-0,001
396,865	4,06	-0,012
407,628	4,06	-0,242
418,392	3,86	-0,379
429,149	3,76	-0,323
439,888	2,52	-0,599
450,646	2,08	-0,714
461,421	1,22	-0,835
472,191	0,1	-1,057
482,942	-0,38	-1,132
493,687	-0,62	-1,291
504,451	-2,28	-1,507
515,208	-2,36	-1,611
525,959	-3,16	-1,734
536,723	-3,84	-1,885
547,48	-4,4	-2,068
558,25	-5,92	-2,286
569,007	-6,24	-2,311
579,77	-7,42	-2,52
590,528	-7,5	-2,719
601,309	-10,74	-3,023
612,085	-12,86	-3,276
622,848	-12,72	-3,315
633,593	-11,5	-3,195
644,357	-11,06	-3,268
655,102	-11,04	-3,113
665,823	-9,82	-2,937
676,581	-7,6	-2,764
687,344	-9,2	-2,878
698,096	-9,18	-2,904
708,859	-10,28	-3,038
719,616	-9,78	-3,016
730,374	-10,44	-3,092
741,131	-9,9	-3,065
751,901	-10,98	-3,146
762,658	-11,92	-3,247
773,409	-10,24	-3,171
784,191	-12,38	-3,325
794,966	-14,18	-3,416
805,693	-13,2	-3,412
816,469	-14,66	-3,452
827,238	-15,26	-3,471
838,02	-15,32	-3,48
848,789	-15,42	-3,483
859,54	-15,32	-3,48
870,322	-15,36	-3,487
881,079	-15,46	-3,489
891,825	-15,42	-3,491
902,564	-15,32	-3,488
913,333	-15,38	-3,49
924,079	-15,38	-3,491
934,824	-15,38	-3,491
945,576	-15,38	-3,492
956,339	-15,36	-3,494
967,108	-15,36	-3,495
977,866	-15,34	-3,495
988,641	-15,34	-3,497
999,386	-15,3	-3,495
1010,156	-15,28	-3,494
1020,901	-15,22	-3,492
1031,677	-15,26	-3,496
1042,434	-15,22	-3,496
1053,173	-15,16	-3,494
1063,913	-15,06	-3,492
1074,652	-15,06	-3,491
1085,41	-15,04	-3,494
1096,179	-15,04	-3,492
1106,954	-15,06	-3,496
1117,73	-14,98	-3,496
1128,475	-14,92	-3,494
1139,244	-14,88	-3,494
1150,008	-14,76	-3,489
1160,765	-14,42	-3,475
1171,541	-13,7	-3,457
1182,304	-13,56	-3,443
1193,061	-13	-3,422
1203,825	-12,74	-3,421
1214,588	-12,64	-3,4
1225,339	-11,8	-3,384
1236,079	-9,92	-3,253
1246,83	-9,84	-3,212
1257,576	-8,4	-3,039
1268,351	-8,62	-3,006
1279,115	-7,36	-2,948
1289,872	-7,42	-2,9
1300,641	-8,56	-2,989
1311,411	-7,48	-2,978
1322,162	-7,1	-2,802
1332,925	-7,22	-2,883
1343,689	-7,6	-2,927
1354,452	-7,3	-3,004
1365,222	-7,8	-3,002
1375,985	-7,28	-2,882
1386,736	-6,64	-2,749
1397,482	-6,08	-2,704
1408,239	-6,5	-2,808
1418,972	-5,04	-2,723
1429,73	-5,64	-2,673
1440,493	-5,42	-2,585
1451,233	-4,64	-2,424
1462,002	-3,78	-2,232
1472,759	-2,76	-1,991
1483,505	-3,1	-2,006
1494,268	-2,9	-1,994
1505,02	-2,2	-1,828
1515,789	-2,34	-1,85
1526,534	-2,1	-1,788
1537,292	-1,42	-1,638
1548,043	-0,5	-1,467
1558,806	-0,7	-1,378
1569,558	0,06	-1,272
1580,315	0,78	-1,169
1591,091	0,96	-1,086
1601,86	1,4	-0,991
1612,617	2,9	-0,716
1623,381	2,5	-0,692
1634,15	2,4	-0,735
1644,902	2,68	-0,681
1655,653	2,86	-0,66
1666,416	4,1	-0,47
1677,186	3,52	-0,528
1687,943	4,08	-0,468
1698,7	4,72	-0,194
1709,482	4,72	-0,021
1720,221	4,74	-0,001
1730,985	4,76	-0,001
1741,718	4,76	-0,002
1752,481	4,78	-0,004
1763,221	4,76	-0,008
1773,99	4,7	-0,017
1784,736	4,62	-0,026
1795,457	4,06	-0,071
1806,226	4,06	-0,067
1816,99	4,18	-0,061
1827,735	3,44	-0,131
1838,504	3,32	-0,134
1849,262	3,12	-0,169
1860,013	2,18	-0,443
1870,765	2,3	-0,448
1881,534	1,46	-0,623
1892,291	1,04	-0,78
1903,043	1,32	-0,728
1913,8	0,92	-0,776
1924,582	1,7	-0,648
1935,351	1,52	-0,654
1946,108	1	-0,798
1956,89	0,74	-0,93
1967,647	0,92	-0,832
1978,422	1,48	-0,668
1989,192	1,5	-0,628
1999,961	1,44	-0,707
2010,719	0,44	-1,034
2021,5	-0,18	-1,271
2032,246	-0,72	-1,45
2043,003	-1,14	-1,611
2053,766	-0,92	-1,535
2064,518	-2,48	-2,041
2075,287	-3,84	-2,243
2086,05	-2,7	-2,082
2096,796	-3	-2,139
2107,547	-3,46	-2,203
2118,31	-3,5	-2,302
2129,074	-3,64	-2,317
2139,831	-4,36	-2,488
2150,595	-5,3	-2,578
2161,346	-5,48	-2,658
2172,103	-6,72	-2,781
2182,873	-6,98	-2,793
2193,636	-6,42	-2,813
2204,412	-7,06	-2,937
2215,187	-6,98	-2,95
2225,956	-8,66	-3,063
2236,72	-9,18	-3,395
2247,477	-9,16	-3,433
2258,246	-9,14	-3,5
2269,01	-9,08	-3,499
2279,785	-9,08	-3,499
2290,555	-9,02	-3,499
2301,306	-8,98	-3,499
2312,045	-8,96	-3,499
2322,815	-8,92	-3,499
2333,566	-8,88	-3,498
2344,324	-8,82	-3,499
2355,087	-8,78	-3,499
2365,838	-8,74	-3,499
2376,602	-8,72	-3,499
2387,365	-8,68	-3,499
2398,146	-8,64	-3,499
2408,91	-8,6	-3,499
2419,649	-8,6	-3,499
2430,401	-8,6	-3,499
2441,164	-8,56	-3,499
2451,939	-8,52	-3,498
2462,691	-8,5	-3,498
2473,442	-8,48	-3,499
2484,2	-8,44	-3,499
2494,951	-8,4	-3,498
2505,696	-8,36	-3,498
2516,448	-8,3	-3,499
2527,205	-8,24	-3,499
2537,981	-8,18	-3,499
2548,744	-8,14	-3,499
2559,495	-8,12	-3,498
2570,259	-8,06	-3,497
2581,022	-8,04	-3,498
2591,785	-8	-3,495
2602,549	-7,94	-3,494
2613,306	-7,9	-3,492
2624,064	-7,82	-3,485
2634,809	-7,5	-3,465
2645,578	-7,54	-3,463
2656,336	-7,06	-3,45
2667,093	-7,46	-3,476
2677,833	-7,42	-3,476
2688,59	-7,6	-3,486
2699,353	-7,68	-3,493
2710,093	-7,64	-3,491
2720,844	-7,62	-3,492
2731,577	-7,54	-3,486
2742,329	-7,46	-3,487
2753,086	-7,52	-3,492
2763,838	-7,48	-3,492
2774,607	-7,48	-3,496
2785,346	-7,44	-3,496
2796,098	-7,44	-3,498
2806,849	-7,4	-3,498
2817,601	-7,38	-3,498
2828,352	-7,36	-3,499
2839,097	-7,36	-3,499
2849,855	-7,3	-3,486
2860,606	-6,74	-3,149
2871,351	-6,26	-2,968
2882,121	-4,42	-2,773
2892,89	-3,1	-2,434
2903,636	-2,1	-2,103
2914,393	-0,56	-1,488
2925,138	0,6	-0,843
2935,908	1,14	-0,524
2946,659	1,76	-0,306
2957,411	2,4	-0,142
2968,168	3,18	-0,066
2978,937	3,76	-0,021
2989,701	3,82	-0,013
3000,452	3,8	-0,009
3011,227	3,86	-0,002
3021,985	3,84	-0,003
3032,748	3,86	-0,002
3043,5	3,84	-0,001
3054,245	3,82	-0,001
3065,002	3,82	-0,001
3075,76	3,82	-0,001
3086,505	3,8	-0,001
3097,275	3,78	-0,03
3108,026	3,78	-0,196
3118,801	1,96	-0,71
3129,547	1,56	-0,722
3140,316	0,56	-1,124
3151,085	-0,36	-1,471
3161,837	-0,96	-1,95
3172,594	-1,46	-2,224
3183,334	-1,46	-2,228
3194,091	-1,76	-2,343
3204,842	-3,8	-3,05
3215,6	-5,98	-3,414
3225,535	3,74	-0,001