File: ensaios_Ciclicos/_newS/_3G50/entrada/_4.txt
Time (s)	Load (N)	Displacement (mm)
0	-0,14	-0,03
10,78	1,48	-0,001
21,471	1,94	-0,004
32,157	2,14	-0,018
42,854	2,26	-0,028
53,557	1,68	-0,084
64,279	0,98	-0,176
74,988	0,2	-0,244
85,686	-2,42	-0,788
96,419	-4,24	-1,18
107,122	-7,86	-1,76
117,838	-9,58	-2,089
128,565	-11,72	-2,316
139,275	-11,26	-2,297
150,002	-15,2	-2,805
160,735	-18,08	-3,18
171,469	-18,28	-3,369
182,208	-18,24	-3,5
192,947	-18,2	-3,499
203,711	-18,1	-3,499
214,456	-18,06	-3,499
225,226	-17,98	-3,499
235,983	-17,94	-3,498
246,74	-17,86	-3,497
257,522	-17,8	-3,496
268,255	-17,64	-3,486
278,989	-16,7	-3,446
289,734	-13,88	-3,298
300,479	-11,56	-2,982
311,243	-9,2	-2,713
322	-7,9	-2,44
332,763	-4,3	-1,787
343,515	-1,34	-1,181
354,278	1,12	-0,781
365,06	2,08	-0,646
375,817	3,8	-0,297
386,556	4,1	-0,015
397,302	4,18	-0,001
408,053	4,2	-0,001
418,822	4,28	-0,002
429,574	4,28	-0,002
440,337	4,32	-0,003
451,113	4,34	-0,006
461,87	4,36	-0,01
472,639	4,3	-0,018
483,397	4,3	-0,022
494,154	4,18	-0,032
504,912	4,24	-0,033
515,663	4,14	-0,053
526,414	3,44	-0,085
537,178	3,52	-0,084
547,929	2,26	-0,114
558,692	3	-0,098
569,486	4,12	-0,054
580,261	4,36	-0,035
591,013	4,54	-0,011
601,764	4,58	-0,006
612,515	4,58	-0,001
623,285	4,54	0
634,024	4,14	-0,29
644,8	3,16	-0,545
655,539	1,1	-0,842
666,32	0,52	-1,012
677,102	-0,74	-1,275
687,859	0,38	-1,012
698,604	1,44	-0,827
709,362	0,88	-0,99
720,113	-0,48	-1,208
730,877	-0,38	-1,204
741,634	-0,12	-1,139
752,373	-0,6	-1,206
763,125	-2,5	-1,663
773,906	-6,18	-2,437
784,676	-7,64	-2,616
795,445	-5,12	-2,216
806,196	-5,5	-2,306
816,978	-8,52	-2,792
827,735	-8	-2,775
838,492	-6,44	-2,517
849,25	-8,02	-2,728
859,995	-10,8	-3,177
870,759	-14,64	-3,442
881,51	-15,58	-3,482
892,255	-15,7	-3,494
903,013	-15,68	-3,499
913,764	-15,62	-3,498
924,516	-14,64	-2,994
935,267	-11,06	-2,656
946,012	-10,28	-2,543
956,77	-11,88	-2,666
967,527	-12,68	-2,812
978,303	-13,54	-2,948
989,054	-15,46	-3,327
999,793	-15,44	-3,5
1010,557	-15,46	-3,5
1021,314	-15,48	-3,499
1032,065	-15,46	-3,499
1042,823	-15,44	-3,495
1053,574	-13,2	-3,399
1064,338	-13,96	-3,41
1075,089	-13,08	-3,343
1085,846	-12,92	-3,378
1096,61	-14	-3,434
1107,349	-15	-3,471
1118,107	-15,16	-3,485
1128,846	-15,32	-3,496
1139,603	-15,3	-3,498
1150,367	-15,22	-3,5
1161,124	-14	-3,097
1171,863	-13,28	-2,985
1182,603	-15,06	-3,236
1193,372	-15,16	-3,499
1204,124	-15,14	-3,498
1214,875	-15,08	-3,495
1225,62	-15,04	-3,491
1236,372	-14,94	-3,487
1247,123	-14,7	-3,47
1257,875	-12,6	-3,378
1268,632	-9	-3,032
1279,377	-8,46	-2,863
1290,141	-7,7	-2,759
1300,904	-2,64	-1,835
1311,656	-1,12	-1,431
1322,419	0,86	-1,022
1333,158	4,66	-0,366
1343,928	1,96	-0,884
1354,685	1,94	-0,897
1365,454	-0,7	-1,432
1376,212	-1,78	-1,631
1386,963	-3,28	-1,908
1397,727	-5,08	-2,426
1408,49	-7,98	-2,88
1419,271	-8,82	-3,042
1430,047	-11,06	-3,318
1440,804	-7,7	-2,936
1451,573	-6,62	-2,643
1462,337	-6,1	-2,608
1473,094	-6,78	-2,761
1483,834	-3,6	-2,137
1494,597	-2,9	-1,947
1505,36	-4,62	-2,38
1516,13	-8,22	-3,027
1526,905	-11,84	-3,424
1537,651	-12,66	-3,483
1548,414	-12,62	-3,499
1559,171	-12,42	-3,309
1569,935	-12,3	-3,252
1580,68	-12,2	-3,369
1591,431	-12,12	-3,5
1602,189	-12,02	-3,5
1612,952	-12	-3,499
1623,692	-11,94	-3,498
1634,449	-11,8	-3,493
1645,2	-11,66	-3,483
1655,982	-11,38	-3,468
1666,739	-10,94	-3,452
1677,485	-11,02	-3,456
1688,23	-11	-3,454
1698,981	-10,68	-3,452
1709,739	-10,84	-3,456
1720,484	-10,16	-3,453
1731,229	-10,66	-3,451
1741,975	-9,76	-3,395
1752,72	-8,48	-3,341
1763,478	-8,36	-3,304
1774,235	-9,92	-3,414
1784,992	-9,88	-3,423
1795,75	-10,52	-3,458
1806,507	-10,74	-3,475
1817,271	-10,32	-3,467
1828,028	-10,36	-3,455
1838,791	-10,56	-3,478
1849,537	-10,62	-3,486
1860,276	-10,58	-3,491
1871,021	-10,54	-3,496
1881,767	-10,5	-3,495
1892,536	-10,44	-3,497
1903,294	-10,4	-3,497
1914,045	-10,32	-3,497
1924,772	-10,28	-3,497
1935,536	-10,18	-3,499
1946,281	-10,16	-3,499
1957,015	-10,1	-3,499
1967,766	-10,06	-3,499
1978,523	-10	-3,499
1989,293	-9,9	-3,439
2000,05	-8,94	-3,049
2010,813	-5,48	-2,654
2021,583	-3,68	-2,214
2032,334	-1,78	-1,833
2043,086	-0,66	-1,463
2053,861	0,2	-1,194
2064,618	1,18	-0,829
2075,358	2,08	-0,513
2086,127	3,18	-0,228
2096,903	4,2	-0,054
2107,654	4,62	-0,031
2118,405	4,78	-0,015
2129,151	4,84	-0,005
2139,896	4,82	-0,005
2150,641	4,82	-0,006
2161,375	4,8	-0,003
2172,12	4,78	-0,001
2182,884	4,78	-0,001
2193,635	4,76	0
2204,392	4,74	0
2215,162	4,02	-0,412
2225,931	2,48	-0,694
2236,689	2,02	-0,787
2247,452	1,48	-0,98
2258,203	1,12	-1,001
2268,979	-0,08	-1,276
2279,73	-0,76	-1,59
2290,476	-1,56	-1,825
2301,227	-1,92	-2,028
2312,008	-1,48	-1,87
2322,742	-2,5	-2,312
2333,487	-2,82	-2,467
2344,244	-2,72	-2,407
2355,008	-3,44	-2,562
2365,771	-6,8	-3,343
2376,523	-7,84	-3,458
2387,268	-8,48	-3,497
2398,013	-8,4	-3,466
2408,783	-6,58	-2,899
2419,528	-4,9	-2,718
2430,268	-2,76	-2,266
2441,025	-0,9	-1,704
2451,77	-0,06	-1,326
2462,528	0,5	-1,057
2473,279	0,72	-0,902
2484,054	1,2	-0,698
2494,806	1,56	-0,569
2505,557	2,12	-0,246
2516,297	3,4	-0,09
2527,066	3,86	-0,05
2537,793	3,64	-0,062
2548,551	3,84	-0,046
2559,308	3,76	-0,054
2570,048	3,42	-0,068
2580,793	4,02	-0,033
2591,544	4,16	-0,011
2602,308	4,2	-0,008
2613,047	4,18	-0,005
2623,786	4,18	-0,005
2634,532	4,16	-0,002
2645,295	4,14	-0,001
2656,035	4,1	-0,001
2666,786	4,1	0
2677,537	4,06	0
2688,289	4,04	-0,001
2699,04	4,04	0
2709,804	4,02	-0,026
2720,567	3,4	-0,382
2731,324	2,42	-0,566
2742,07	2,32	-0,622
2752,821	3,04	-0,548
2763,584	2,12	-0,592
2774,342	2,94	-0,42
2785,093	3,68	-0,24
2795,845	3,92	-0,063
2806,59	3,9	-0,125
2817,335	3,9	-0,223
2828,081	3,12	-0,409
2838,844	3,26	-0,438
2849,596	2,8	-0,549
2860,353	2,1	-0,665
2871,104	1,64	-0,797
2881,874	0,42	-1,165
2892,631	0,68	-1,03
2903,388	0,28	-1,188
2914,146	-0,06	-1,323
2924,918	-0,7	-1,731
2935,637	-0,62	-1,762
2946,418	-1,42	-2,146
2957,175	-2,04	-2,459
2967,909	-2,84	-2,772
2978,666	-3,84	-3,206
2989,424	-4,54	-3,333
3000,181	-5,3	-3,41
3010,944	-6,2	-3,484
3021,69	-6,36	-3,493
3032,435	-6,34	-3,498
3043,174	-6,32	-3,499
3053,932	-6,26	-3,5
3064,695	-6,2	-3,21
3075,435	-5,74	-3,12
3086,192	-4,64	-2,978
3096,949	-3,46	-2,743
3107,701	-3,42	-2,782
3118,536	-1,4	-2,038
3129,468	0,2	-1,106
3140,381	2,58	-0,078
3151,138	3,44	-0,034
3161,902	3,66	-0,011
3173,187	-0,96	-2,024
3184,076	-3,16	-2,98
3194,918	-5,72	-3,457
3205,933	-6	-3,5
3216,997	-0,8	-1,761
3221,94	3,68	-0,001