File: Cycling_tests/_50perc/_1gap/entrada/_1.txt
Time (s)	Load (N)	Displacement (mm)
0	0	-0,035
9,845	-9	-1,69
19,468	-12	-2,64
29,087	-0,5	-0,232
38,733	-18	-3,469
48,38	1,5	-0,003
58,058	-18	-3,307
67,735	-5,5	-1,782
77,383	-2,5	-0,831
87,054	-16,5	-3,441
96,732	1,5	-0,001
106,404	-12,5	-2,625
116,081	-7,5	-2,31
125,77	1	-0,056
135,448	-17	-3,496
145,131	0,5	-0,48
154,826	-7	-1,878
164,54	-10,5	-2,876
174,247	1	-0,042
183,943	-17	-3,498
193,62	-1,5	-0,801
203,316	-5	-1,568
213,011	-10,5	-2,899
222,695	0,5	-0,082
232,396	-16,5	-3,494
242,067	1,5	0
251,757	-13,5	-2,954
297,726	-3	-1,502
307,422	-6,5	-1,889
317,117	-5	-2,069
326,807	-3,5	-1,282
336,49	-8	-2,579
346,167	0	-0,481
355,857	-15	-3,472
365,54	1,5	-0,003
375,206	-15	-3,499
384,895	1,5	-0,212
394,561	-10,5	-2,565
404,226	-3,5	-1,669
413,898	-1,5	-0,81
423,575	-12	-3,313
433,241	1	-0,07
479,156	-15	-3,498
488,821	2	-0,198
498,487	-13	-2,987
508,158	0	-0,612
517,842	-10	-2,584
527,501	-3	-1,603
537,161	-4,5	-1,775
546,808	-4,5	-2,166
556,479	-2,5	-1,254
566,139	-8,5	-2,853
575,81	0	-0,407
585,488	-12,5	-3,378
595,165	1	-0,084
604,832	-14	-3,477
614,484	1,5	-0,019
624,156	-14,5	-3,496
633,809	1,5	-0,003
643,474	-14,5	-3,498
653,152	0	-0,557
662,817	-5	-1,945
672,483	-6,5	-2,581
682,148	0,5	-0,182
691,796	-14,5	-3,486
701,455	1,5	-0,004
711,121	-14,5	-3,499
720,774	1,5	-0,001
730,428	-14,5	-3,499
740,075	2	-0,001
749,752	-14,5	-3,499
759,418	1,5	-0,259
769,077	-14,5	-3,499
778,737	1,5	0
788,384	-14,5	-3,5
798,038	1,5	-0,142
807,715	-14	-3,14
817,393	-0,5	-0,888
827,058	-10,5	-2,774
836,723	-0,5	-0,842
846,377	-9,5	-2,636
856,03	-1,5	-1,175
865,684	-7,5	-2,334
875,343	-2,5	-1,517
885,003	-4,5	-1,744
894,668	-4,5	-2,154
904,334	-2,5	-1,414
913,999	-6	-2,544
923,652	-0,5	-0,791
933,303	-8,5	-2,98
942,953	0	-0,282
952,607	-11,5	-3,389
962,26	1,5	-0,056
971,914	-13,5	-3,482
981,579	1,5	-0,007
991,227	-13,5	-3,496
1000,886	2	0
1010,534	-13	-3,126
1020,199	0	-0,63
1029,87	-7	-2,423
1039,536	-3,5	-1,96
1049,189	-1,5	-1,114
1058,843	-8,5	-3,116
1068,496	1	-0,096
1078,144	-13,5	-3,478
1087,797	1,5	-0,007
1097,439	-13,5	-3,499
1107,086	0,5	-0,497
1116,745	-8	-2,558
1126,399	-3	-1,679
1136,052	-2	-1,325
1145,706	-7,5	-2,826
1155,347	1	-0,145
1201,197	-11	-3,006
1210,844	-2	-1,342
1220,515	-2,5	-1,465
1230,175	-7	-2,755
1239,828	0	-0,484
1249,464	-12,5	-3,452
1259,117	2	-0,009
1268,789	-13,5	-3,5
1278,448	-0,5	-0,858
1288,104	-5	-2,066
1297,743	-4	-2,058
1307,385	-1	-0,992
1317,032	-9	-3,21
1326,691	1,5	-0,065
1336,339	-13	-3,494
1345,986	1,5	-0,001
1355,628	-13	-3,475
1365,287	0	-0,655
1374,941	-5,5	-2,094
1384,576	-3	-1,872
1394,23	-2	-1,298
1403,877	-5,5	-2,67
1413,518	-1	-0,804
1423,16	-8,5	-3,074
1432,801	0	-0,352
1442,437	-10,5	-3,397
1452,078	1,5	-0,034
1461,726	-13	-3,492
1471,379	1,5	-0,006
1481,027	-13	-3,496
1526,846	2	-0,002
1536,487	-13	-3,499
1546,129	1,5	-0,001
1555,776	-12	-3,076
1565,436	-1,5	-1,302
1575,083	-4	-1,834
1584,731	-4	-2,15
1594,372	-0,5	-0,974
1604,008	-7,5	-2,992
1613,673	0	-0,315
1623,32	-11,5	-3,426
1632,968	1,5	-0,059
1642,609	-12	-3,458
1652,263	2	-0,022
1661,904	-13	-3,495
1671,558	2	-0,001
1681,217	-12,5	-3,5
1690,853	-0,5	-0,861
1700,518	-4,5	-2,014
1710,178	-3,5	-2,173
1719,825	-0,5	-0,92
1729,472	-7,5	-3,091
1739,12	1,5	-0,061
1748,749	-12,5	-3,493
1758,409	2	0
1768,044	-10	-2,953
1777,692	0	-0,621
1787,333	-9,5	-2,79
1796,987	-2	-1,506
1806,628	-2,5	-1,565
1816,269	-4	-2,331
1825,929	0	-0,32
1835,57	-12	-3,456
1845,206	1,5	-0,011
1854,853	-12,5	-3,498
1864,489	1,5	-0,318
1874,13	-10	-2,81
1883,772	-1,5	-1,341
1893,413	-2,5	-1,431
1903,055	-5,5	-2,692
1912,708	0,5	-0,13
1958,521	-12,5	-3,395
1968,163	0	-0,705
1977,816	-4	-1,906
1987,452	-5	-2,555
1997,087	0	-0,282
2006,741	-11	-3,428
2016,37	1,5	-0,037
2026,011	-12	-3,486
2035,653	2	-0,005
2045,288	-12,5	-3,498
2054,93	1,5	-0,102
2064,577	-7	-2,499
2074,213	-2,5	-1,816
2083,86	0	-0,718
2093,49	-10,5	-3,411
2103,119	2	-0,007
2112,761	-12	-3,499
2122,402	0	-0,761
2132,037	-3	-1,845
2141,679	-6	-2,778
2151,32	1	-0,091
2160,974	-12	-3,49
2170,609	1,5	-0,002
2216,417	-5,5	-2,366
2226,052	-3	-1,951
2235,705	0	-0,538
2245,341	-9,5	-3,372
2254,988	2	-0,012
2264,624	-11,5	-3,483
2274,259	-0,5	-0,948
2283,901	-2,5	-1,691
2293,548	-5,5	-2,696
2303,184	1	-0,12
2312,831	-11,5	-3,482
2322,473	2	-0,007
2332,102	-11,5	-3,498
2341,743	1,5	-0,001
2351,379	-11,5	-3,274
2361,026	-0,5	-1,017
2370,662	-4,5	-2,232
2380,309	-1,5	-1,67
2426,087	-1	-1,218
2435,728	-6,5	-3,06
2445,382	1	-0,098
2455,023	-10,5	-3,472
2464,664	1,5	-0,019
2474,3	-11	-3,493
2483,953	2	0
2493,595	-9,5	-3,06
2503,236	-1	-1,16
2512,878	-3	-1,996
2522,513	-3,5	-2,278
2532,149	0	-0,662
2541,79	-10	-3,455
2551,449	2	-0,006
2561,085	-10,5	-3,499
2570,726	1,5	-0,512
2580,38	-3,5	-2,151
2590,021	-3	-2,232
2599,657	0	-0,448
2609,298	-8,5	-3,416
2618,946	2	-0,007
2628,587	-9,5	-3,482
2638,235	0	-0,76
2647,876	-3	-2,075
2657,511	-2,5	-1,932
2667,153	0	-0,861
2676,794	-8,5	-3,403
2686,442	2	-0,018
2696,083	-9,5	-3,494
2705,713	1,5	-0,001
2715,348	-8,5	-3,101
2724,978	-0,5	-1,07
2734,625	-1,5	-1,694
2744,272	-4	-2,732
2753,92	0,5	-0,346
2763,549	-9	-3,475
2773,197	2	0
2782,832	-6	-2,764
2792,468	-1	-1,518
2802,103	-1	-1,443
2811,745	-3,5	-2,702
2821,374	0,5	-0,422
2831,015	-7,5	-3,453
2840,657	2	-0,027
2850,298	-8	-3,498
2859,94	2	-0,254
2869,575	-4,5	-2,54
2879,211	-1,5	-1,772
2888,858	0	-0,96
2898,5	-6	-3,366
2908,153	1,5	-0,044
2917,783	-8	-3,491
2927,424	2	-0,003
2937,059	-8	-3,5
2946,707	0	-0,687
2956,342	-4	-2,465
2965,984	-1	-1,69
2975,619	-0,5	-1,416
2985,255	-3,5	-2,89
2994,896	1	-0,163
3004,538	-7,5	-3,478
3014,179	2	-0,003
3023,814	-7	-3,497
3033,45	0,5	-0,604
3079,227	0	-0,754
3088,887	-5	-3,354
3098,516	2	-0,022
3108,152	-7	-3,497
3117,793	1,5	-0,35
3127,429	-3	-2,574
3137,07	-1	-1,805
3146,699	0	-1,182
3156,335	-4	-3,188
3165,976	1,5	-0,063
3175,624	-6,5	-3,494
3178,954	2	0