File: Cycling_tests/_50perc/_1gap/entrada/_4.txt
Time (s)	Load (N)	Displacement (mm)
0	0	-0,035
3,341	-15	-2,64
6,874	-11,5	-2,631
10,156	-1,5	-0,351
13,402	-17,5	-3,416
16,678	1	-0,017
19,941	-19	-3,496
23,217	1	-0,001
26,495	-18,5	-3,382
29,755	0	-0,614
33,033	-13	-2,482
36,309	-5,5	-1,662
39,578	-7,5	-1,64
42,832	-8	-2,273
46,112	-2,5	-0,746
49,364	-14	-3,232
52,628	0	-0,184
55,891	-17	-3,458
59,161	1,5	-0,013
62,425	-17,5	-3,498
65,695	1,5	-0,007
68,99	-16,5	-3,128
72,258	-0,5	-0,668
75,528	-11	-2,354
78,822	-6	-1,876
82,11	-4	-1,186
85,398	-11,5	-2,958
88,662	0	-0,167
91,949	-16,5	-3,479
95,231	1,5	-0,004
98,513	-16,5	-3,499
101,789	0,5	-0,413
105,053	-13	-2,68
108,329	-3,5	-1,332
148,028	-2,5	-1,023
151,292	-9,5	-2,77
154,568	-1	-0,668
157,844	-13,5	-3,313
161,126	1,5	-0,064
164,395	-15,5	-3,492
167,683	1,5	-0,002
170,983	-15,5	-3,5
174,265	1,5	-0,341
177,547	-12	-2,659
180,81	-3	-1,371
184,094	-5	-1,675
187,362	-6,5	-2,285
190,644	-0,5	-0,595
193,926	-14	-3,396
197,195	1,5	-0,018
200,465	-15,5	-3,494
203,735	1,5	-0,001
207,005	-15,5	-3,348
210,287	-1	-0,825
213,562	-8	-2,118
216,826	-5,5	-1,965
220,108	-2	-0,94
223,366	-11,5	-3,146
226,642	1,5	-0,054
229,917	-15	-3,492
233,187	1,5	-0,001
236,457	-15	-3,413
239,739	-0,5	-0,733
243,021	-8,5	-2,216
246,297	-5	-2,007
249,578	-1,5	-0,82
252,848	-14	-3,384
256,1	1,5	-0,028
259,358	-15	-3,494
262,622	2	-0,001
265,891	-15	-3,286
269,173	-1,5	-0,946
272,443	-6	-1,884
275,713	-6	-2,22
278,983	-1	-0,774
282,252	-12,5	-3,283
285,522	1	-0,08
288,786	-15	-3,485
328,414	-4	-1,788
331,678	-3	-1,178
334,953	-9	-2,942
338,223	1	-0,131
341,487	-15	-3,48
344,769	2	-0,002
348,039	-15	-3,4
351,321	0	-0,77
354,596	-7,5	-2,156
357,863	-4,5	-1,959
361,136	-1,5	-0,92
364,406	-10	-3,099
367,682	1,5	-0,094
370,951	-15	-3,486
374,233	2	-0,002
377,509	-14,5	-3,461
380,773	0	-0,667
384,043	-9	-2,443
387,313	-3	-1,649
390,582	-3	-1,429
393,84	-8	-2,704
397,104	0	-0,419
400,368	-13	-3,408
403,632	2	-0,024
406,901	-14,5	-3,496
410,183	2	0
413,447	-14,5	-3,202
416,717	-1	-1,021
419,981	-6	-2,019
423,251	-4,5	-2,032
426,514	-1,5	-1,014
429,778	-9	-2,889
433,054	0	-0,184
436,324	-14	-3,468
439,582	2	-0,009
442,845	-14,5	-3,496
446,115	2	-0,001
449,384	-14,5	-3,231
452,643	0	-0,746
455,907	-8,5	-2,335
459,164	-3	-1,574
462,428	-3,5	-1,475
465,704	-7	-2,63
468,968	0	-0,509
472,226	-11,5	-3,32
548,025	-4	-1,976
551,283	-1	-0,914
554,541	-9,5	-3,124
557,799	1	-0,096
561,057	-14	-3,484
564,32	2	-0,003
567,584	-14	-3,499
570,842	2	-0,027
574,1	-13,5	-3,15
577,376	-0,5	-0,837
580,633	-7,5	-2,262
583,903	-3	-1,678
587,167	-2,5	-1,419
590,431	-5,5	-2,526
593,701	0	-0,553
596,952	-11	-3,299
600,216	1,5	-0,057
603,474	-13,5	-3,487
606,744	2,5	-0,003
610,002	-13,5	-3,499
613,266	2	-0,185
616,529	-11,5	-2,918
619,793	-1,5	-1,091
623,063	-6	-1,913
626,327	-4,5	-2,081
629,585	-1,5	-1,064
632,848	-9	-2,998
636,106	1	-0,146
639,37	-13,5	-3,467
642,64	2	-0,008
645,904	-13,5	-3,498
649,174	2	0
652,437	-13,5	-3,135
655,707	0	-0,698
658,971	-8,5	-2,517
662,235	-2,5	-1,397
665,499	-3,5	-1,678
668,762	-5,5	-2,229
672,02	-1	-0,819
675,296	-10	-3,231
678,554	1	-0,119
681,83	-13,5	-3,473
685,097	2	-0,008
688,345	-13,5	-3,498
691,609	2	-0,001
694,867	-13,5	-3,253
698,131	0	-0,729
701,401	-7,5	-2,365
704,664	-3	-1,623
707,922	-3	-1,517
711,186	-5,5	-2,361
714,444	-1	-0,858
717,702	-9,5	-3,084
720,959	1	-0,143
724,217	-13	-3,468
727,475	2	-0,008
730,739	-13,5	-3,498
733,991	1,5	-0,019
737,254	-12,5	-3,08
740,513	-1	-0,878
743,77	-6,5	-2,265
747,034	-3	-1,611
750,292	-4	-1,762
753,55	-5	-2,261
756,807	-1	-0,898
760,065	-9	-3
763,329	0	-0,311
766,599	-11	-3,307
769,857	1	-0,117
773,121	-12,5	-3,42
776,378	2	-0,041
779,636	-13,5	-3,479
782,906	2	-0,006
786,164	-13,5	-3,498
789,428	2	-0,001
792,679	-13,5	-3,5
795,937	1,5	-0,229
907,837	-6	-2,21
911,101	-3	-1,869
914,37	-2	-1,238
917,622	-5,5	-2,547
920,88	-0,5	-0,675
924,144	-10,5	-3,336
927,408	1,5	-0,058
930,665	-13	-3,484
933,917	2	-0,007
937,181	-13	-3,497
940,445	2	-0,001
943,697	-13	-3,5
946,955	2	-0,231
950,206	-12	-3,035
953,458	0	-0,67
956,716	-8	-2,444
959,974	-2	-1,336
963,232	-4,5	-1,878
966,489	-4	-2,042
969,759	-2	-1,153
973,011	-6	-2,626
976,263	-0,5	-0,739
979,527	-9,5	-3,196
982,784	1	-0,096
986,042	-12,5	-3,467
989,294	2	-0,012
992,558	-13,5	-3,496
995,816	2	-0,001
999,08	-13	-3,461
1002,337	1,5	-0,384
1005,595	-10,5	-2,808
1008,853	-1,5	-1,028
1012,099	-6,5	-2,276
1015,369	-3	-1,667
1018,632	-2,5	-1,431
1021,884	-5	-2,398
1025,142	-0,5	-0,79
1028,418	-9	-3,242
1031,67	1,5	-0,096
1034,928	-12,5	-3,477
1038,173	2	-0,009
1041,437	-13	-3,498
1044,701	2	-0,001
1047,953	-13	-3,332
1051,217	0,5	-0,626
1054,48	-7,5	-2,525
1057,738	-2	-1,438
1060,998	-4	-1,797
1064,26	-4,5	-2,123
1067,518	-1	-0,989
1070,769	-7,5	-2,955
1074,033	0,5	-0,16
1077,297	-12,5	-3,462
1080,555	2	-0,014
1083,813	-13	-3,496
1087,052	2	-0,002
1090,316	-13	-3,499
1093,568	2	-0,165
1096,826	-11	-2,96
1100,084	-0,5	-0,855
1103,342	-7	-2,439
1106,605	-2	-1,438
1109,863	-4,5	-1,817
1113,115	-4,5	-2,165
1116,373	-1	-1,018
1119,625	-7	-2,784
1122,882	0	-0,499
1126,14	-10,5	-3,384
1129,404	1,5	-0,054
1132,656	-12,5	-3,482
1135,914	2	-0,004
1139,173	-12,5	-3,499
1142,429	1,5	-0,415
1145,681	-9,5	-2,768
1148,939	-1,5	-1,147
1152,191	-4,5	-1,996
1155,467	-3,5	-1,957
1158,718	-1,5	-1,203
1161,982	-7	-2,818
1165,234	0	-0,336
1168,498	-12	-3,431
1171,75	1,5	-0,04
1175,008	-12,5	-3,492
1178,259	2	-0,005
1181,517	-12,5	-3,498
1184,775	2	0
1188,021	-12,5	-3,4
1191,273	1,5	-0,364
1194,536	-9	-2,76
3150,431	2	-0,008
3153,688	-6	-3,498
3156,94	2	-0,072
3160,198	-4,5	-2,97
3163,45	0	-0,976
3166,714	-1,5	-2,17
3169,965	-1,5	-1,832
3173,217	-0,5	-1,358
3176,469	-3	-2,762
3179,721	0,5	-0,454
3182,229	2	-0,001