File: Cycling_tests/_50perc/_1gap/entrada/_5.txt
Time (s)	Load (N)	Displacement (mm)
0	0	-0,026
5,501	-16	-2,621
10,672	1	-0,102
15,832	-21	-3,495
21,07	0,5	-0,066
26,296	-14,5	-3,058
31,551	-4	-1,029
36,765	-5,5	-1,725
79,705	-5	-1,724
84,93	-11	-2,351
90,156	1	-0,468
95,256	-18	-3,496
100,463	1,5	-0,058
105,695	-13	-3,148
110,897	-2,5	-1,149
153,77	-0,5	-0,75
158,882	-4	-1,606
164,09	-11,5	-2,629
169,213	2	-0,001
174,481	-17	-3,496
179,641	1,5	-0,052
184,825	-10	-2,918
189,918	-5,5	-1,819
195,12	-1	-0,903
200,298	-16,5	-3,444
205,463	2,5	-0,008
210,707	-15	-3,457
215,861	0	-0,676
220,936	-3	-1,426
263,444	2,5	-0,002
268,497	-12	-3,258
273,655	-2,5	-1,331
278,821	-2	-1,118
284,005	-16	-3,305
289,159	2,5	-0,006
294,228	-9	-2,85
299,412	-3,5	-1,493
341,776	-15,5	-3,494
346,947	1	-0,13
352,017	-4,5	-2
357,183	-9,5	-2,492
362,384	2,5	-0,231
367,556	-15	-3,496
372,722	1,5	-0,106
377,779	-4	-1,949
382,945	-10	-2,596
388,112	2,5	-0,001
393,181	-14	-3,436
398,304	-1	-0,987
403,374	-1	-0,925
408,426	-15	-3,497
487,207	-1,5	-1,04
492,349	-15	-3,499
497,371	1,5	-0,104
502,506	-5,5	-2,35
507,654	-7	-2,275
512,682	2,5	-0,002
517,799	-13	-3,415
522,941	-1,5	-1,1
527,963	0	-0,689
533,111	-15	-3,498
538,258	2	-0,038
543,298	-5,5	-2,359
548,32	-12	-2,912
553,431	2,5	-0,004
558,441	-8	-2,777
636,959	0,5	-0,336
641,972	-2	-1,332
646,996	-14,5	-3,499
652,138	2	-0,067
657,154	-3	-1,845
662,271	-12	-2,956
667,287	2,5	-0,017
672,423	-8	-2,808
677,432	-9	-2,506
682,55	2,5	-0,001
687,566	-10,5	-3,254
692,593	-4	-1,96
697,603	2,5	-0,001
702,739	-13,5	-3,449
707,761	-2,5	-1,021
712,885	1	-0,556
717,996	-14	-3,496
723,048	0	-0,643
728,177	-3	-1,627
733,193	-14	-3,499
738,309	2,5	-0,038
816,654	-9,5	-3,197
821,8	-2,5	-1,526
826,794	2,5	-0,058
831,803	-10,5	-3,353
836,939	-1,5	-1,331
841,937	2,5	-0,182
847,061	-13,5	-3,489
852,082	-0,5	-0,948
857,206	-1,5	-1,294
862,21	-14	-3,497
867,327	1,5	-0,17
872,349	-2	-1,446
877,479	-13,5	-3,37
882,507	2	-0,071
887,534	-3	-1,84
892,568	-14	-3,5
897,566	1	-0,164
902,684	-4	-2,058
907,693	-13,5	-3,253
912,829	2,5	-0,006
917,833	-6,5	-2,769
922,836	-9,5	-2,662
927,96	2,5	-0,001
932,964	-8,5	-3,04
938,099	-2,5	-1,591
943,115	2,5	-0,2
948,245	-14	-3,495
953,261	-0,5	-0,893
958,264	0	-0,742
1036,752	-12	-3,131
1041,761	2	-0,044
1046,885	-4,5	-2,341
1051,883	-13	-3,109
1056,893	2,5	-0,027
1062,016	-6	-2,693
1067,038	-7,5	-2,476
1072,042	2,5	-0,003
1077,147	-9,5	-3,264
1082,151	-5	-2,16
1087,281	2,5	-0,084
1092,291	-12,5	-3,434
1097,294	-3	-1,758
1102,424	1,5	-0,5
1107,44	-13	-3,475
1112,461	-2	-1,449
1117,579	0,5	-0,596
1122,589	-13,5	-3,482
1127,587	-1	-1,293
1132,734	-1	-0,998
1137,762	-13,5	-3,496
1142,892	1	-0,18
1147,889	-2	-1,498
1152,905	-13,5	-3,499
1158,017	2	-0,052
1163,033	-3	-1,821
1168,054	-13	-3,492
1173,184	2,5	-0,018
1178,206	-4,5	-2,212
1183,203	-13	-3,257
1188,333	2,5	-0,01
1193,337	-4,5	-2,293
1198,347	-11	-3,01
1203,464	3	-0,005
1208,472	-5	-2,554
1213,466	-10,5	-2,946
1218,541	3	-0,006
1223,557	-4,5	-2,465
1228,561	-10,5	-2,981
1233,678	2,5	-0,005
1238,688	-5,5	-2,62
1243,704	-7,5	-2,616
1248,816	2,5	-0,002
1253,813	-7	-2,995
1550,61	2,5	-0,008
1555,608	-4	-2,314
1560,612	-11	-3,03
1565,706	2,5	-0,009
1570,709	-4,5	-2,378
1575,695	-11	-3,064
1580,693	2	-0,049
1585,822	-4	-2,353
1590,82	-11,5	-3,128
1595,836	2,5	-0,029
1600,84	-3	-2,013
1605,951	-9,5	-2,844
1610,943	2	-0,025
1615,947	-3	-2,039
1620,938	-12,5	-3,5
1626,062	2,5	-0,026
1631,06	-3,5	-2,02
1636,082	-12,5	-3,466
1641,193	2,5	-0,018
1646,197	-3	-1,987
1651,201	-12,5	-3,5
1656,21	1	-0,183
1661,214	-1,5	-1,36
1666,212	-12,5	-3,498
1671,204	0	-0,655
1676,207	0	-0,724
1681,337	-12,5	-3,498
1686,341	0	-0,549
1691,35	-1	-1,009
1696,354	-12,5	-3,493
1701,472	0,5	-0,378
1706,482	-1,5	-1,218
1711,479	-12,5	-3,497
1716,483	0	-0,732
1721,619	-1,5	-1,403
1726,604	-12,5	-3,496
1731,62	0	-0,806
1736,624	0	-0,696
1741,627	-12	-3,477
1746,625	-1,5	-1,434
1751,635	2,5	-0,018
1756,633	-10	-3,376
1761,763	-1,5	-1,285
1766,76	2,5	-0,132
1771,758	-10,5	-3,402
1776,767	-3,5	-1,956
1781,765	2,5	-0,002
1786,763	-7	-2,983
1791,761	-7,5	-2,598
1796,764	2,5	-0,008
1801,762	-4,5	-2,473
1806,784	-10	-2,924
1811,769	2,5	-0,029
1816,785	-3	-1,914
1821,777	-12,5	-3,499
1826,781	1	-0,262
1831,778	-1	-1,204
1836,776	-12,5	-3,496
1841,774	0	-0,849
1846,891	-1	-1,163
1851,889	-12,5	-3,497
1856,899	0	-0,746
1861,891	0,5	-0,649
1867,02	-12	-3,497
1872,012	0	-0,745
1877,022	0	-0,784
1882,007	-12	-3,482
1887,017	-1	-1,34
1892,027	2,5	-0,185
1897,031	-11	-3,43
1902,028	-3	-1,763
1907,02	2,5	-0,001
1912,034	-9,5	-3,344
1917,033	-4	-2,058
1922,025	2,5	-0,002
1927,029	-6	-2,9
1932,021	-7	-2,604
1937,147	2,5	-0,001
1942,142	-8	-3,104
1947,14	-6	-2,435
1952,125	2	-0,005
1957,249	-6,5	-2,986
1962,253	-5	-2,338
1967,251	2,5	-0,003
1972,254	-5,5	-2,729
1977,258	-7,5	-2,642
1982,4	2,5	-0,001
1987,397	-8,5	-3,184
1992,389	-5	-2,291
1997,393	2	-0,004
2002,403	-5	-2,613
2007,4	-10	-2,93
2012,398	2	-0,034
2017,396	-3	-1,956
2022,387	-12	-3,5
2027,493	2	-0,045
2032,503	-2,5	-1,754
2037,507	-12	-3,499
2042,498	0,5	-0,237
2047,49	-1,5	-1,247
2052,494	-12	-3,497
2057,491	0	-0,835
2062,483	1,5	-0,49
2067,481	-11,5	-3,471
2072,611	0	-0,856
2077,614	0	-0,645
2082,606	-12	-3,473
2087,616	-1,5	-1,5
2092,631	2,5	-0,041
2097,749	-12	-3,48
2102,747	-1	-1,182
2107,751	2,5	-0,238
2112,748	-11	-3,428
2117,752	-2,5	-1,829
2122,876	2	-0,308
2127,873	-11,5	-3,45
2132,865	-1,5	-1,535
2137,875	2,5	0
2142,879	-9	-3,326
2148,002	-1,5	-1,5
2153,012	2	0
2157,998	-9	-3,332
2162,995	-4	-2,097
2422,451	-1	-1,293
2427,442	2	-0,29
2432,44	-11	-3,451
2437,438	-2,5	-1,729
2442,435	2	-0,001
2447,421	-7	-3,014
2452,419	-7	-2,524
2457,417	2	-0,01
2462,42	-3,5	-2,195
2467,412	-12	-3,457
2472,41	1	-0,13
2477,407	-1,5	-1,402
2482,405	-12	-3,495
2487,535	0	-0,332
2492,527	-0,5	-0,865
3223,891	-9	-3,493
3228,882	0	-1,111
3233,808	2,5	-0,001