File: Cycling_tests/_20perc/_4gap/entrada/_2.txt
Time (s)	Load (N)	Displacement (mm)
0	1	-0,034
11,993	-22	-2,357
24,574	-30,5	-3,499
36,838	-11,5	-2,018
48,795	-1	-0,346
60,614	-23,5	-3,28
72,85	3,5	-0,194
84,493	-28,5	-3,498
96,252	3,5	-0,003
108,6	-9	-1,468
120,353	-8,5	-1,918
131,968	-19,5	-2,592
143,728	-0,5	-0,759
155,337	-27	-3,499
166,67	-1	-0,608
178,538	-22,5	-3,327
189,925	-13,5	-2,087
201,233	4	-0,006
212,598	-11	-2,27
223,697	-26	-3,493
235,372	3,5	-0,06
246,706	-5,5	-1,611
257,979	-25	-3,487
269,115	-17,5	-2,603
280,22	-1,5	-0,801
291,313	4	-0,006
302,215	4	0
313,764	-24,5	-3,486
324,851	-21,5	-2,92
335,819	-7,5	-1,602
347,284	3,5	-0,465
358,119	-2	-1,046
407,317	-0,5	-0,861
418,104	-4	-1,381
428,711	0,5	-0,735
439,469	-1	-0,888
450,136	0	-0,776
460,858	0	-0,828
471,501	3	-0,41
482,084	4	-0,001
492,644	4,5	-0,004
503,719	-2,5	-1,124
514,308	2	-0,574
524,892	4,5	0
535,415	4,5	-0,012
545,909	1,5	-0,244
556,372	-3,5	-1,358
566,847	-16	-2,594
577,317	-23,5	-3,499
587,816	-23	-3,482
598,796	-23	-3,498
609,307	-23	-3,486
619,794	-14,5	-2,907
630,336	-5,5	-1,787
640,871	0,5	-0,654
651,428	4	-0,001
661,87	3,5	-0,071
672,321	-3	-1,188
682,767	-20	-2,718
693,77	-4,5	-1,463
704,24	-19,5	-2,904
714,685	-22,5	-3,493
725,166	-13,5	-3,17
735,606	-4,5	-1,652
746,105	4	-0,234
756,533	4,5	-0,014
766,966	-0,5	-0,809
777,411	-11,5	-2,268
787,911	-22	-3,5
798,404	-21,5	-3,48
808,844	-9	-2,482
819,319	-2,5	-1,172
829,891	4,5	-0,264
840,426	4,5	-0,006
850,859	0	-0,634
861,311	-9,5	-2,049
871,75	-22	-3,5
882,177	-21	-3,454
892,599	-6,5	-2,16
903,002	2	-0,622
913,436	4,5	-0,005
923,911	1	-0,377
934,326	-8,5	-1,956
944,712	-22	-3,5
955,115	-19	-3,405
965,573	-8,5	-2,39
976,012	-1,5	-0,946
986,451	4,5	-0,002
996,873	2	-0,166
1007,276	-6,5	-1,842
1017,668	-21,5	-3,5
1028,071	-19,5	-3,423
1038,511	-6	-2,092
1048,956	1,5	-0,641
1059,365	4,5	-0,01
1069,757	-1,5	-0,977
1080,172	-13	-2,498
1090,587	-21,5	-3,498
1101,015	-16,5	-3,324
1111,418	-4	-1,603
1121,786	4,5	-0,001
1132,135	1,5	-0,298
1142,514	-8	-2,104
1152,948	-21	-3,5
1163,339	-19	-3,417
1173,767	-5,5	-1,995
1184,17	4	-0,329
1194,502	3,5	-0,085
1204,899	-4,5	-1,624
1215,278	-21	-3,5
1225,646	-16,5	-3,327
1236,061	-4,5	-1,769
1246,495	3,5	-0,376
1256,826	3	-0,122
1267,181	-7,5	-2,058
1277,555	-20,5	-3,499
1287,91	-13,5	-3,07
1298,272	-2,5	-1,284
1308,675	4,5	-0,001
1319,061	1,5	-0,27
1329,464	-6	-1,843
1339,807	-20,5	-3,499
1350,169	-14	-3,155
1360,56	-2,5	-1,418
1370,963	4,5	-0,001
1381,343	1,5	-0,17
1391,716	-5,5	-1,772
1402,09	-20,5	-3,499
1412,475	-15,5	-3,352
1422,95	-5,5	-2,173
1433,372	1,5	-0,666
1443,715	4	-0,022
1454,059	-2,5	-1,267
1464,426	-16	-2,858
1474,776	-20	-3,481
1485,149	-7	-2,394
1495,511	2,5	-0,565
1505,86	4	-0,031
1516,233	-2	-1,283
1526,991	-1,5	-1,143
1537,328	-19	-3,048
1547,701	-20	-3,484
1558,015	-5,5	-2,136
1568,352	4,5	-0,176
1578,69	3,5	-0,095
1589,099	-3	-1,334
1599,508	-18	-3,088
1609,852	-19,5	-3,469
1620,195	-5	-2,064
1630,569	4,5	-0,234
1641,327	1	-0,613
1651,681	4	-0,027
1662,049	-1,5	-1,242
1672,392	-19	-3,129
1682,742	-18	-3,455
1693,013	-2,5	-1,422
1703,309	4,5	-0,003
1713,598	-1	-0,973
1723,899	-19	-3,237
1734,207	-18	-3,42
1744,514	-2,5	-1,37
1754,815	4,5	-0,004
1765,195	0	-0,694
1775,472	-18	-3,054
1785,75	-15,5	-3,383
1796,081	-2,5	-1,4
1806,395	4,5	-0,003
1816,696	-1,5	-1,224
1826,986	-19,5	-3,499
1837,257	-9	-2,707
1847,564	3,5	-0,507
1857,818	2	-0,199
1868,089	-13	-2,688
1878,391	-19	-3,462
1888,662	-2	-1,287
1899,005	4,5	-0,006
1909,283	-3	-1,408
1955,864	-19,5	-3,491
1966,135	-4,5	-2,041
1976,425	4,5	-0,001
1986,714	0,5	-0,538
1997,064	-9,5	-2,457
2007,347	-19,5	-3,49
2017,636	-5	-2,145
2027,968	4,5	-0,009
2038,281	3	-0,147
2048,595	-7	-2,092
2058,908	-19	-3,497
2069,186	-6,5	-2,408
2079,451	4,5	-0,102
2089,753	1	-0,386
2100,012	-15	-2,868
2110,301	-16,5	-3,399
2120,573	-2	-1,185
2130,88	4,5	-0,008
2141,133	-2,5	-1,483
2151,417	-19	-3,499
2161,682	-7	-2,588
2171,972	4	-0,287
2182,279	2,5	-0,139
2192,539	-9,5	-2,483
2202,816	-18	-3,48
2213,087	-4	-1,833
2223,335	4,5	-0,003
2233,636	0	-0,807
2243,92	-17,5	-3,137
2254,185	-14,5	-3,336
2264,463	-1,5	-1,231
2274,752	4,5	-0,004
2285,011	-0,5	-1,132
2295,259	-16,5	-3,492
2305,542	-12,5	-3,288
2315,801	-1	-1,007
2326,103	4,5	-0,009
2336,434	-0,5	-1,122
2346,7	-16	-3,5
2356,995	-9	-3,09
2367,314	-1	-1,116
2377,622	4,5	-0,008
2387,899	-2,5	-1,646
2398,207	-15,5	-3,499
2408,478	-7,5	-2,832
2418,744	3	-0,513
2429,033	3,5	-0,096
2439,298	-6	-2,383
2449,57	-15	-3,487
2459,829	-2,5	-1,844
2470,209	4,5	-0,23
2480,51	3,5	-0,109
2490,775	-6,5	-2,432
2501,095	-15	-3,492
2511,402	-3,5	-2,179
2521,68	4,5	-0,001
2531,957	1	-0,617
2542,246	-9,5	-2,853
2552,494	-13	-3,425
2562,759	-1	-1,184
2573,073	4,5	-0,006
2583,338	-0,5	-1,272
2593,622	-14	-3,499
2603,875	-5	-2,532
2614,122	4	0
2624,388	1	-0,607
2634,695	-9,5	-2,85
2644,967	-12	-3,42
2655,244	-1,5	-1,378
2665,527	4,5	-0,007
2675,823	-0,5	-1,483
2686,094	-12	-3,499
2696,372	-4	-2,516
2706,637	4,5	-0,135
2716,927	1,5	-0,262
2727,198	-4,5	-2,59
2737,475	-10,5	-3,457
2747,795	-2	-1,813
2758,06	4,5	-0,002
2768,332	0,5	-0,892
2778,603	-10,5	-3,102
2788,88	-8	-3,334
2799,206	-0,5	-1,082
2809,489	4	-0,025
2819,773	-2	-2,047
2830,032	-10,5	-3,489
2840,333	-2	-1,867
2850,599	4,5	-0,002
2860,87	0	-1,347
2871,136	-10,5	-3,499
2881,407	-3,5	-2,474
2891,685	4,5	-0,07
2901,95	1,5	-0,462
2912,245	-5,5	-2,757
2922,511	-9	-3,431
2932,77	0	-1,106
2943,078	4	-0,028
2953,367	-2	-2,134
2963,632	-10	-3,482
2973,88	-1	-1,508
2984,145	4,5	-0,006
2994,399	-0,5	-1,521
3004,652	-9,5	-3,497
3014,923	-2,5	-2,257
3025,195	4,5	0
3035,448	0,5	-0,732
3045,714	-9,5	-3,262
3056,057	-8	-3,398
3066,329	-0,5	-1,151
3076,672	4	-0,006
3086,938	0	-1,338
3097,257	-8,5	-3,224
3107,528	-5,5	-3,297
3117,812	0	-1,026
3128,071	4	-0,028
3138,36	0	-1,689
3148,632	-8,5	-3,499
3158,933	-4,5	-3,099
3169,223	0	-0,857
3179,482	4	-0,033
3189,754	-0,5	-1,734
3200,031	-8,5	-3,499
3210,284	-3	-2,665
3220,454	4	0