File: Cycling_tests/_20perc/_4gap/entrada/_5.txt
Time (s)	Load (N)	Displacement (mm)
0	1	-0,029
11,746	-29	-3,299
23,817	-6,5	-1,517
35,457	-21	-2,58
90,137	-14	-2,693
101,837	-6	-1,329
113,584	-8,5	-2,009
125,129	-15	-2,344
137,271	-18	-3,219
149,151	3	-0,089
160,436	-5	-1,541
171,321	-12	-2,686
182,256	-22,5	-3,465
193,164	-23,5	-3,498
204,231	-9	-1,923
214,924	-10	-2,015
226,132	4	-0,016
237,165	0	-0,821
248,072	-6,5	-1,967
258,974	-18,5	-3,29
269,863	-22,5	-3,496
280,381	-22,5	-3,483
291,342	-22,5	-3,004
341,199	4,5	-0,001
351,66	3,5	-0,03
362,024	-2	-0,97
372,445	-8,5	-1,973
382,867	-21,5	-3,299
393,415	-21,5	-3,499
403,871	-21,5	-3,488
414,143	-8	-2,319
424,438	3	-0,454
434,872	4,5	-0,001
445,053	-2	-1,123
492,799	-5	-1,83
502,932	4,5	-0,004
513,089	-2	-1,165
523,247	-21	-3,5
533,35	-10	-2,568
543,484	4,5	-0,213
553,545	0	-0,682
600,798	4,5	-0,001
610,896	-3	-1,47
621,023	-20	-3,499
631,145	-8	-2,353
641,236	4,5	-0,002
651,309	-4,5	-1,665
661,395	-20	-3,494
671,438	-3	-1,501
681,554	4,5	-0,02
691,723	-6	-1,909
701,773	-19,5	-3,481
748,936	-19,5	-3,499
758,991	-4,5	-2,042
769,155	4,5	-0,003
779,204	-6,5	-1,938
789,284	-19	-3,475
799,345	0,5	-0,809
809,394	0	-0,721
819,474	-19,5	-3,499
829,589	-5,5	-2,226
839,645	4,5	-0,008
849,73	-7,5	-2,151
859,798	-18	-3,452
869,913	-2,5	-1,443
879,956	3	-0,138
890,054	-17,5	-3,026
900,055	-6,5	-2,397
910,153	4,5	-0,004
920,167	-10	-2,438
930,282	-17	-3,427
940,313	4,5	-0,175
950,452	-0,5	-0,98
960,532	-19,5	-3,498
970,623	-4,5	-1,947
980,733	4,5	-0,005
990,758	-9	-2,268
1000,837	-16,5	-3,414
1010,917	3	-0,556
1021,002	0,5	-0,687
1031,088	-18,5	-3,499
1041,191	-4	-1,901
1051,174	3	-0,128
1061,176	-19	-3,499
1071,124	-1	-1,062
1081,131	-1	-1,118
1091,204	-19	-3,494
1101,224	-1	-0,968
1111,237	1	-0,599
1121,227	-19	-3,499
1131,228	-3	-1,647
1141,254	4	-0,073
1151,249	-18	-3,044
1161,802	-18,5	-3,499
1171,852	-4,5	-1,912
1181,877	4,5	-0,031
1191,916	-15	-2,914
1201,892	-7,5	-2,522
1211,971	4,5	-0,006
1221,979	-10	-2,497
1231,968	-10,5	-2,931
1241,988	4,5	-0,001
1251,959	-5,5	-1,953
1261,948	-13,5	-3,281
1271,938	4,5	-0,001
1282,029	-1,5	-1,353
1292,049	-18	-3,484
1302,014	2,5	-0,613
1312,016	-0,5	-1,002
1321,981	-18,5	-3,496
1331,946	0	-0,907
1341,936	0,5	-0,656
1351,913	-18	-3,498
1361,903	-2	-1,444
1371,868	1	-0,528
1381,834	-18	-3,493
1391,793	2	-0,649
1401,782	-1,5	-1,302
1411,754	-17,5	-3,468
1421,725	4	-0,368
1431,673	-2,5	-1,528
1441,674	-17	-3,461
1451,664	4,5	-0,164
1461,623	-4	-1,798
1471,631	-14,5	-3,327
1481,626	4,5	-0,001
1491,585	-8	-2,333
1501,623	-12	-3,221
1511,576	4,5	-0,003
1521,554	-8,5	-2,413
1531,495	-8	-2,69
1541,442	4,5	-0,013
1551,792	-0,5	-1,089
1561,698	-16,5	-3,457
1571,693	3,5	-0,388
1581,658	-1,5	-1,454
1591,594	-16,5	-3,439
1601,535	4,5	-0,001
1611,458	-14	-2,864
1621,406	-4,5	-2,071
1631,365	2,5	-0,211
1641,307	-17,5	-3,498
1651,248	2	-0,586
1661,196	-5	-1,964
1671,101	-7	-2,556
1681,073	4,5	-0,03
1690,96	-17,5	-3,499
1700,884	-1,5	-1,349
1710,795	0,5	-0,754
1720,688	-16,5	-3,469
1730,594	5	-0,001
1740,481	-15	-3,004
1750,387	-2,5	-1,681
1760,322	2	-0,27
1770,216	-17	-3,492
1780,121	4	-0,402
1789,984	-8,5	-2,396
1799,92	-5,5	-2,458
1809,909	4,5	-0,054
1819,797	-17,5	-3,497
1829,714	3,5	-0,493
1839,614	-8	-2,383
1849,519	-4,5	-2,247
1859,4	1	-0,542
1869,294	-15	-3,439
1879,157	4,5	-0,002
1889,045	-14,5	-2,992
1898,974	-3	-1,918
1908,867	1	-0,598
1918,773	-16,5	-3,476
1928,684	4,5	-0,001
1938,554	-9	-2,497
1948,477	-7	-2,677
1958,395	4,5	-0,034
1968,324	-16	-3,137
1978,23	-4	-2,136
1988,165	3	-0,132
1998,094	-17	-3,5
2007,97	-1	-1,297
2017,857	0	-0,87
2027,727	-16	-3,464
2037,614	4,5	0
2047,508	-8	-2,4
2057,383	-5	-2,351
2067,264	3,5	-0,112
2077,152	-17	-3,498
2087,087	-0,5	-1,042
2096,969	-1	-1,344
2106,85	-14,5	-3,375
2116,726	4,5	-0,004
2126,625	-17	-3,139
2136,513	-2	-1,503
2146,4	0	-1,06
2156,276	-13	-3,331
2166,151	4,5	-0,008
2176,038	-16,5	-3,2
2185,938	-1,5	-1,598
2195,843	1	-0,578
2205,713	-16	-3,476
2215,582	4,5	-0,001
2225,487	-12	-2,814
2235,423	-3	-1,918
2245,292	1	-0,527
2255,246	-16,5	-3,492
2265,139	4,5	0
2275,039	-8	-2,386
2284,938	-4	-2,309
2294,843	4	-0,065
2304,755	-16,5	-3,498
2314,672	-0,5	-1,139
2324,566	-1	-1,33
2334,453	-10,5	-3,2
2344,341	4,5	-0,021
2354,228	-16,5	-3,328
2364,098	-1	-1,218
2373,979	-0,5	-1,145
2383,902	-14,5	-3,423
2393,82	4,5	-0,001
2403,701	-13,5	-2,966
2413,601	-2,5	-1,793
2423,464	1,5	-0,369
2433,382	-16	-3,495
2443,263	4,5	-0,212
2453,145	-5	-2,143
2463,014	-5,5	-2,456
2472,895	4	-0,09
2482,771	-16	-3,499
2492,664	0	-0,882
2502,546	-0,5	-1,344
2512,434	-13,5	-3,404
2522,338	5	-0,001
2532,262	-3,5	-1,903
2542,155	-9	-3,13
2552,037	4,5	-0,01
2561,918	-15	-3,16
2571,842	-3	-1,939
2581,735	2,5	-0,192
2591,76	-15	-3,488
2601,786	-3	-2,058
2611,686	2	-0,198
2621,591	-15	-3,499
2631,454	0	-0,952
2641,33	-0,5	-1,325
2651,223	-13	-3,407
2661,087	4,5	-0,004
2670,956	-13	-3,015
2680,88	-3,5	-2,232
2690,761	3,5	-0,074
2700,672	-15	-3,5
2710,572	-1,5	-1,496
2720,441	1	-0,7
2730,323	-14,5	-3,493
2740,222	3,5	-0,528
2750,103	-1,5	-1,661
2759,991	-9	-3,278
2769,872	4,5	-0,003
2779,748	-9,5	-2,845
2789,635	-2	-1,898
2799,517	1,5	-0,62
2809,404	-13	-3,486
2819,292	4,5	-0,065
2829,185	-3,5	-2,232
2839,097	-5	-2,731
2848,978	4,5	-0,03
2858,907	-12,5	-3,252
2868,795	-1,5	-1,763
2878,676	1,5	-0,409
2888,558	-12	-3,497
2898,433	0	-0,965
2908,308	0	-1,249
2918,19	-10,5	-3,45
2928,077	4,5	0
2937,947	-3	-2,319
2947,834	-3,5	-2,609
2957,71	4	-0,058
2967,591	-10,5	-3,499
2977,472	0	-0,943
2987,366	0	-1,479
2997,29	-6,5	-3,259
3007,153	4,5	-0,014
3017,04	-9	-3,091
3026,922	-1	-1,6
3036,797	1,5	-0,719
3046,685	-9,5	-3,489
3056,566	4,5	-0,226
3066,465	-0,5	-1,921
3076,335	-5	-3,059
3086,222	4,5	-0,013
3096,122	-7,5	-2,999
3106,021	-1,5	-2,091
3115,891	2	-0,344
3125,79	-9,5	-3,496
3135,677	1	-0,851
3145,553	0	-1,454
3155,5	-9	-3,471
3165,376	4,5	-0,001
3175,257	-3,5	-2,54
3185,139	-1,5	-2,253
3195,104	4	-0,038
3205,067	-9	-3,337
3208,195	4,5	0