File: Cycling_tests/_20perc/_3gap/entrada/_2.txt
Time (s)	Load (N)	Displacement (mm)
87,032	-27	-3,465
95,258	-8,5	-1,888
103,273	3,5	-0,015
111,702	-0,5	-0,374
120,54	3	-0,023
128,609	-18	-2,486
295,34	-0,5	-0,589
302,923	-17,5	-3,075
310,465	-0,5	-0,599
318,061	-17	-3,048
325,583	-2,5	-0,91
524,197	-23	-3,491
531,504	-0,5	-0,686
538,794	-3,5	-1,332
546,101	-23,5	-3,5
553,403	3,5	-0,035
671,758	-8,5	-1,956
678,964	4	-0,001
686,163	-19	-3,408
693,423	-3	-1,29
700,604	3,5	-0,282
707,786	-22	-3,473
714,992	-3	-1,268
722,203	2,5	-0,562
729,409	-22,5	-3,491
736,59	-2	-1,08
817,844	-22	-3,478
825,031	-2,5	-1,218
832,201	3	-0,509
839,4	-21,5	-3,485
846,6	-2,5	-1,138
853,798	2,5	-0,563
861,005	-22	-3,485
868,169	-2,5	-1,194
875,404	0	-0,712
882,61	-22	-3,494
963,852	4	-0,001
971,045	-18,5	-3,372
978,209	-6,5	-1,82
985,39	4	-0,015
992,56	-18,5	-3,382
999,735	-6	-1,854
1006,947	4	0
1014,105	-14,5	-3,112
1021,276	-9,5	-2,195
1028,408	4	-0,004
1035,577	-12,5	-2,882
1042,741	-11,5	-2,38
1049,892	4,5	-0,004
1057,476	-21,5	-3,497
1064,598	-2	-1,169
1071,749	4	-0,138
1078,925	-19	-3,412
1086,082	-9	-1,998
1093,264	4,5	-0,001
1100,446	-14,5	-3,156
1107,585	-10,5	-2,258
1114,737	4	-0,002
1121,906	-12,5	-2,882
1129,058	-13	-2,488
1136,234	4	-0,004
1143,403	-10,5	-2,65
1516,312	-20	-3,497
1523,427	-1,5	-1,116
1530,543	4	-0,001
1537,671	-12,5	-3,105
1544,798	-14	-2,734
1551,944	4	-0,038
1559,095	-3	-1,516
1566,217	-20	-3,495
1573,321	-3,5	-1,52
1580,43	4	-0,001
1587,96	-20	-3,499
1595,081	0	-0,639
1602,233	-0,5	-0,858
1609,36	-19,5	-3,484
1616,506	-4	-1,609
1623,634	4,5	-0,001
1630,738	-11,5	-2,896
1637,847	-19,5	-3,009
1644,95	2,5	-0,106
1652,048	-1,5	-1,096
1659,176	-19,5	-3,487
1666,279	-3,5	-1,604
1673,437	4,5	0
1680,552	-12,5	-2,974
1687,668	-13,5	-2,684
1694,82	4,5	-0,007
1701,935	-5,5	-2,252
1709,039	-19,5	-3,36
1716,16	2,5	-0,129
1723,282	-1,5	-1,195
1730,476	-19,5	-3,498
1737,573	-1	-1,029
1744,689	4,5	-0,123
1751,792	-14	-3,228
1758,92	-11	-2,414
1766,012	4,5	-0,011
1809,443	4	-0,076
1816,571	-16	-3,384
1823,656	-7,5	-2,088
1830,784	4,5	-0,003
1837,893	-6,5	-2,436
1844,997	-19,5	-3,326
1852,113	1,5	-0,195
1859,21	-1,5	-1,192
1866,302	-19	-3,49
1873,394	-2,5	-1,368
1880,479	4,5	0
1887,547	-11,5	-3,038
1894,632	-14,5	-2,764
1901,748	4	-0,022
1908,815	-3	-1,667
1915,901	-19	-3,498
1922,987	0	-0,886
1930,066	4	-0,153
1937,152	-13	-3,241
1944,273	-9	-2,33
1951,383	4,5	-0,005
1958,505	-5	-2,156
1965,596	-19	-3,499
1972,712	0,5	-0,663
1979,797	3,5	-0,381
1986,871	-15	-3,316
1993,945	-10,5	-2,48
2001,036	4	-0,024
2008,11	-2,5	-1,396
2015,219	-19	-3,495
2022,353	-1,5	-1,254
2029,426	4,5	-0,001
2036,494	-8,5	-2,652
2043,586	-18,5	-3,365
2050,665	1	-0,404
2057,745	0	-0,716
2064,824	-16,5	-3,437
2071,922	-7	-2,149
2079,062	4,5	-0,003
2086,207	-9	-2,806
2093,305	-14	-2,946
2100,409	3,5	-0,054
2107,488	-2	-1,376
2114,574	-18	-3,493
2121,653	-1	-1,169
2128,757	4,5	-0,07
2135,86	-13	-3,21
2142,964	-8,5	-2,421
2150,086	4,5	-0,009
2157,171	-4	-1,958
2164,245	-17,5	-3,499
2171,312	1	-0,446
2178,386	-1	-0,986
2185,49	-17,5	-3,492
2192,587	-1	-1,108
2199,685	4	-0,233
2206,782	-15	-3,405
2213,886	-5	-1,936
2220,996	4	-0,001
2228,075	-9	-2,858
2235,137	-13,5	-2,872
2242,21	4	-0,038
2249,314	-3	-1,772
2256,406	-17	-3,499
2263,473	1	-0,504
2270,583	-1	-1,001
2277,668	-17	-3,491
2284,772	-0,5	-1,004
2291,834	3	-0,457
2298,907	-15	-3,442
2305,999	-4	-1,768
2313,108	4,5	-0,001
2320,182	-8,5	-2,911
2327,285	-10,5	-2,587
2334,383	4	-0,017
2341,469	-3,5	-2,002
2348,548	-16,5	-3,5
2355,622	1	-0,474
2362,707	1	-0,688
2369,817	-15,5	-3,461
2376,891	-4	-1,927
2383,964	4	-0,003
2391,044	-5	-2,331
2398,111	-15,5	-3,383
2405,191	1,5	-0,299
2412,271	-0,5	-0,898
2419,356	-15	-3,488
2426,43	-1,5	-1,533
2433,534	4,5	0
2440,607	-8	-3,009
2447,681	-7,5	-2,585
2454,754	4	-0,033
2461,858	-2,5	-1,882
2468,925	-14,5	-3,498
2476,017	0,5	-0,693
2483,097	1,5	-0,626
2490,17	-13,5	-3,459
2497,25	-3	-1,957
2504,323	4,5	-0,002
2511,427	-5,5	-2,575
2518,507	-14	-3,19
2525,64	3,5	-0,079
2532,726	-1,5	-1,321
2539,799	-13,5	-3,494
2546,903	0	-1,015
2553,977	4	-0,244
2561,092	-10	-3,364
2568,16	-4	-2,266
2575,239	4,5	-0,007
2582,319	-3	-2,122
2589,393	-12,5	-3,499
2596,49	1	-0,434
2603,6	0	-0,832
2610,691	-12	-3,476
2617,753	-2	-1,932
2624,838	4,5	-0,002
2631,918	-4	-2,452
2639,01	-12	-3,263
2646,131	3,5	-0,088
2653,217	-1	-1,371
2660,284	-12	-3,492
2667,358	0	-1,399
2674,438	4	-0,001
2681,571	-7,5	-3,163
2688,657	-7	-2,718
2695,742	2	-0,155
2702,834	0,5	-0,762
2709,932	-9,5	-3,39
2716,993	-5,5	-2,535
2724,073	4	-0,023
2731,153	-1	-1,592
2738,232	-12	-3,497
2745,306	0	-1,07
2752,373	4,5	0
2759,453	-4,5	-2,765
2766,538	-9	-2,894
2773,648	3,5	-0,056
2780,746	-1,5	-1,507
2787,819	-12	-3,495
2794,899	0	-1,236
2801,978	4	-0,001
2809,058	-5	-2,808
2816,15	-10,5	-3,012
2823,235	1,5	-0,143
2830,303	-0,5	-1,146
2837,418	-12	-3,492
2844,51	-1	-1,636
2851,602	4	-0,001
2858,669	-3,5	-2,535
2865,749	-11	-3,318
2872,834	2	-0,218
2879,902	1,5	-0,664
2886,993	-10	-3,44
2894,073	-2	-2,064
2901,177	4	-0,003
2908,25	-2,5	-2,188
2915,318	-10,5	-3,5
2922,397	1	-0,485
2929,465	0,5	-0,731
2936,533	-10	-3,466
2943,618	-2	-2,011
2950,692	4	-0,002
2957,801	-3,5	-2,582
2964,869	-9	-3,124
2971,973	2,5	-0,126
2979,058	-0,5	-1,15
2986,126	-9,5	-3,478
2993,661	3,5	-0,052
3000,747	-1	-1,362
3007,839	-10	-3,49
3014,924	-0,5	-1,78
3021,98	4	-0,011
3029,071	-1	-1,586
3036,133	-9,5	-3,494
3043,207	-0,5	-1,785
3050,268	4	-0,004
3057,348	-2	-2,106
3064,415	-9,5	-3,498
3071,495	0	-1,114
3078,599	3,5	-0,355
3085,708	-8,5	-3,442
3092,842	-1	-2,022
3099,915	4	-0,013
3107,007	-1,5	-1,972
3114,087	-9	-3,498
3121,178	0,5	-1,08
3128,27	4,5	-0,001
3135,343	-3	-2,627
3142,411	-9	-3,499
3149,526	0,5	-0,795
3156,618	2	-0,497
3163,686	-7,5	-3,405
3170,783	-2	-2,291
3177,851	4	-0,011
3184,913	-0,5	-1,693
3191,998	-9	-3,497
3199,066	0	-1,486
3206,127	4	-0,004
3213,207	-1,5	-2,037
3220,274	-8,5	-3,499
3227,348	0,5	-0,941
3234,416	4	0
3238,741	4	0