File: Cycling_tests/_20perc/_3gap/entrada/_3.txt
Time (s)	Load (N)	Displacement (mm)
0	0	-0,041
2,131	1,5	-0,108
4,369	-2,5	-0,73
6,612	-8,5	-1,36
8,844	-13	-1,898
11,086	-19	-2,666
13,788	-31,5	-3,244
16,014	-24	-2,67
18,186	-22	-2,299
20,394	-18	-1,818
22,698	-5	-0,802
24,924	0	-0,25
27,107	1,5	-0,071
29,285	2,5	-0,032
31,433	2,5	-0,018
33,647	3	-0,004
35,807	3	-0,001
37,991	3	-0,027
40,144	1,5	-0,37
42,742	-19,5	-2,781
44,896	-19,5	-3,05
47,11	-28	-3,427
49,24	-28,5	-3,46
51,418	-29,5	-3,49
53,632	-29,5	-3,497
55,75	-29,5	-3,498
57,904	-29,5	-3,499
59,973	-29,5	-3,498
62,085	-29,5	-3,498
64,251	-29	-3,499
66,411	-29	-3,466
68,57	-29	-3,192
71,151	-4,5	-0,879
73,293	-3	-0,706
75,423	-1,5	-0,539
77,552	-1	-0,424
79,628	-1,5	-0,585
81,668	-4,5	-0,884
83,762	-4,5	-0,995
85,874	-5	-0,998
87,908	-7,5	-1,314
90,002	-7,5	-1,364
92,072	-9,5	-1,505
94,165	-9	-1,449
96,322	-7	-1,359
98,461	-5	-1,133
100,537	-6,5	-1,312
103,099	3,5	-0,005
105,223	3,5	-0,003
107,323	3	-0,005
109,453	3,5	-0,004
111,535	3,5	-0,006
113,64	3,5	-0,006
115,824	3,5	-0,002
117,936	3,5	-0,001
120,066	3,5	-0,001
122,16	3,5	-0,002
124,296	3,5	-0,001
208,124	-3	-0,928
210,211	-3,5	-1,049
212,203	-8	-1,535
214,201	-14,5	-2,147
216,27	-15,5	-2,354
218,286	-22	-2,813
220,314	-26,5	-3,252
222,318	-26	-3,499
224,383	-26,5	-3,498
226,458	-26,5	-3,496
228,528	-26	-3,494
230,49	-24,5	-3,434
232,488	-17,5	-3,073
234,546	-16	-2,916
236,627	-14,5	-2,772
238,691	-13	-2,513
240,731	-9,5	-2,128
242,79	-7,5	-1,843
244,876	-6	-1,708
246,935	-5	-1,436
248,963	-2,5	-1,017
251,051	-1,5	-0,851
253,108	1	-0,523
255,178	3,5	-0,237
257,219	3,5	0
259,234	3,5	-0,003
261,31	3,5	-0,007
263,38	3,5	-0,012
265,816	2,5	-0,468
267,892	3,5	-0,271
269,877	3,5	-0,001
271,917	3,5	-0,004
273,915	3,5	-0,024
275,943	2	-0,095
277,989	0,5	-0,308
280,041	-1,5	-0,67
282,045	-5,5	-1,284
284,073	-8,5	-1,669
286,082	-13,5	-2,13
366,142	-22	-2,99
368,14	-24,5	-3,5
370,126	-24,5	-3,496
372,093	-24	-3,468
374,091	-19	-3,254
376,101	-14	-2,695
378,105	-9,5	-2,189
380,079	-5	-1,532
382,083	-3	-1,052
384,099	1	-0,616
386,061	3,5	-0,001
388,017	3,5	-0,006
389,979	2,5	-0,109
391,947	-1	-0,71
393,902	-5,5	-1,406
395,894	-11,5	-2,05
397,88	-17	-2,581
399,896	-23	-3,03
401,87	-24,5	-3,499
479,385	-9	-2,307
481,36	-5	-1,569
483,309	-0,5	-0,809
485,241	4	-0,001
487,642	-3,5	-1,294
489,585	3	-0,481
491,529	4	-0,001
493,485	4	-0,015
495,428	1,5	-0,194
497,378	-2,5	-1,04
499,298	-9,5	-1,967
501,236	-18	-2,788
503,186	-24	-3,5
505,106	-24	-3,49
507,044	-20	-3,36
508,976	-12,5	-2,665
510,896	-6	-1,754
512,804	-0,5	-0,82
514,712	4	-0,001
553,775	-24	-3,5
555,689	-24	-3,49
557,633	-20,5	-3,372
559,553	-11	-2,607
561,491	-5	-1,65
563,387	2	-0,533
565,312	4	-0,002
567,238	3,5	-0,029
569,158	0,5	-0,444
571,066	-5,5	-1,404
573,418	1,5	-0,202
575,344	-2,5	-1,094
577,282	-9	-1,957
579,19	-20,5	-3,018
581,092	-23,5	-3,497
583,03	-23	-3,47
584,949	-14	-3,008
586,863	-6	-1,918
588,783	-1,5	-0,961
590,715	4	-0,143
592,653	4	-0,005
594,585	3	-0,074
596,505	-1	-0,763
598,401	-6,5	-1,774
600,332	-16	-2,665
602,264	-23,5	-3,5
604,184	-22,5	-3,488
606,098	-18	-3,286
608,006	-9	-2,277
609,92	-3,5	-1,305
611,828	3,5	-0,262
613,76	4	-0,004
615,698	3,5	-0,041
617,618	0	-0,56
619,963	4	-0,018
621,919	1	-0,244
623,833	-3	-1,177
625,729	-12	-2,265
627,631	-23	-3,36
703,407	-21,5	-3,454
705,32	-13,5	-2,862
707,216	-5	-1,783
709,136	0	-0,772
711,032	4	-0,001
712,934	4	-0,028
714,884	0,5	-0,384
716,768	-5	-1,56
718,688	-14,5	-2,518
721,034	-4,5	-1,395
722,965	-11,5	-2,262
724,861	-22,5	-3,321
726,799	-22,5	-3,495
728,701	-19,5	-3,376
730,615	-9	-2,47
732,541	-3,5	-1,467
734,449	3	-0,436
736,369	4	-0,002
738,271	3	-0,072
740,185	-1	-0,863
742,116	-7	-1,82
744,042	-17,5	-2,78
745,974	-22,5	-3,499
747,882	-22,5	-3,479
749,796	-14,5	-2,998
751,716	-6,5	-2,103
753,624	-2	-1,106
755,568	4	-0,249
757,494	4	-0,004
759,413	3	-0,09
761,315	-1,5	-0,974
763,223	-8,5	-1,993
765,155	-18	-2,896
767,087	-22,5	-3,499
768,995	-22	-3,469
770,915	-13,5	-2,906
772,829	-5,5	-1,918
775,198	-16,5	-3,223
850,794	4	0
852,702	4	-0,012
854,622	1,5	-0,233
856,542	-2,5	-1,185
858,474	-8,5	-2,035
860,388	-20,5	-2,992
862,277	-22,5	-3,496
864,191	-20,5	-3,428
866,117	-12	-2,784
867,995	-3,5	-1,514
869,891	3	-0,397
871,823	4	-0,002
873,731	3,5	-0,056
875,645	-0,5	-0,77
877,547	-8,5	-1,969
879,484	-19	-2,911
881,416	-22,5	-3,499
883,324	-21,5	-3,478
885,244	-14	-3,061
887,176	-6,5	-2,142
889,09	-2,5	-1,159
890,992	4	-0,084
892,93	4	-0,006
894,85	2,5	-0,128
896,746	-2,5	-1,111
898,63	-10	-2,234
900,549	-21	-3,166
902,469	-22	-3,497
904,389	-20,5	-3,431
906,303	-10,5	-2,66
908,211	-4,5	-1,668
910,143	0	-0,76
912,051	4,5	-0,001
913,965	4	-0,032
915,89	0,5	-0,45
917,798	-4,5	-1,57
919,707	-13,5	-2,558
921,638	-22	-3,488
923,54	-22	-3,49
925,472	-18	-3,326
927,362	-7,5	-2,269
929,27	-2,5	-1,203
931,196	4	-0,201
933,109	4,5	-0,005
935,011	2,5	-0,15
936,919	-2,5	-1,172
938,839	-9,5	-2,142
940,723	-22	-3,257
942,631	-22	-3,494
944,539	-18	-3,362
946,435	-8	-2,346
948,343	-3	-1,323
950,238	4	-0,214
952,206	4	-0,002
954,12	3,5	-0,048
956,064	0	-0,595
958,008	-4	-1,492
959,91	-14	-2,595
1145,317	-21	-3,483
1147,201	-13	-3,032
1149,121	-5,5	-2,068
1151,035	-1,5	-1,053
1152,925	4	-0,071
1154,827	4	-0,011
1156,729	1	-0,27
1158,631	-2,5	-1,299
1160,527	-12	-2,368
1162,452	-21	-3,274
1164,372	-21	-3,496
1166,274	-19,5	-3,417
1168,17	-10,5	-2,724
1170,108	-4	-1,721
1172,004	1	-0,69
1173,918	4	-0,001
1175,814	4	-0,037
1177,722	0	-0,584
1180,103	4	-0,01
3145,501	-3	-2,916
3147,385	-1	-1,776
3149,275	1	-0,764
3151,153	4	-0,002
3153,037	3,5	-0,05
3154,915	0,5	-0,9
3156,792	-0,5	-1,994
3158,682	-7,5	-3,003
3160,566	-9	-3,497
3162,444	-6,5	-3,408
3164,328	-2	-2,453
3165,93	4	0