File: Cycling_tests/_20perc/_3gap/entrada/_4.txt
Time (s)	Load (N)	Displacement (mm)
0	1	-0,04
8,405	3	-0,001
16,841	3	-0,002
25,675	-7,5	-1,481
33,898	3	-0,248
42,352	3,5	-0,109
50,385	0	-0,264
58,947	2,5	-0,066
67,004	-10,5	-1,685
74,99	-28	-3,497
83,161	-20,5	-3,113
213,354	3	-0,073
221,075	-25	-3,499
228,725	-2	-1,049
236,411	-4,5	-1,242
244,498	-25	-3,242
252,243	-7,5	-2,043
259,989	3	-0,07
267,639	-25	-3,498
275,732	-17,5	-3,189
283,379	4	-0,01
290,947	-24,5	-3,499
298,489	2,5	-0,45
306,043	-17	-2,508
314,1	-24	-3,488
321,665	4	-0,001
367,587	-3	-1,085
375,014	-13	-2,809
382,478	0	-0,439
389,887	-17	-3,206
397,375	3	-0,086
442,685	-9,5	-2,345
450,094	-4,5	-1,306
457,486	-8	-2,178
464,913	-5	-1,391
472,269	-5,5	-1,839
479,571	-14	-2,336
486,848	2,5	-0,515
494,083	-23,5	-3,499
501,361	4	-0,006
508,669	-23	-3,467
515,886	0	-0,623
560,584	1,5	-0,18
567,795	-9,5	-2,382
574,983	-13,5	-2,398
582,212	4	-0,248
589,412	-23	-3,495
596,6	1,5	-0,212
603,799	-9	-2,335
611,035	-10,5	-2,138
618,181	4	-0,134
625,386	-22,5	-3,491
632,634	2	-0,098
639,857	-8,5	-2,407
647,027	-12,5	-2,316
654,196	4	0
661,408	-22,5	-3,485
705,625	-5,5	-1,943
712,772	-22,5	-3,09
719,941	4	-0,01
727,104	-15	-3,148
734,274	-6,5	-1,749
741,503	0	-0,77
748,667	-22	-3,497
755,861	2	-0,166
763,018	-5,5	-2,026
770,176	-16,5	-2,778
887,907	-19	-3,372
895,095	-2	-1,156
902,24	-2	-1,178
909,422	-21,5	-3,338
916,651	4,5	-0,004
923,809	-18,5	-3,376
931,008	-1	-1,012
938,148	-2,5	-1,17
945,294	-21,5	-3,499
952,457	4,5	-0,025
959,627	-13	-2,927
1150,842	-0,5	-0,92
1157,976	-21	-3,498
1165,157	4	-0,031
1172,303	-9,5	-2,703
1179,406	-11	-2,301
1186,534	4,5	-0,027
1193,656	-20	-3,474
1200,765	-0,5	-0,841
1207,935	-3	-1,448
1215,074	-20,5	-3,225
1222,208	4,5	-0,006
1229,324	-15,5	-3,339
1236,439	-3	-1,302
1243,579	-1,5	-1,183
1250,688	-20,5	-3,499
1257,81	4	-0,056
1265,004	-12,5	-2,951
1272,071	-8,5	-2,02
1279,211	3,5	-0,444
1286,32	-20,5	-3,494
1732,281	-13,5	-2,659
1739,373	4,5	-0,001
1746,494	-18,5	-3,452
1753,585	-0,5	-0,964
1760,653	-2,5	-1,321
1767,751	-19,5	-3,5
1774,854	4	-0,021
1781,91	-9	-2,686
1788,971	-8,5	-2,274
1796,039	4,5	0
1803,089	-18	-3,434
1810,15	-1,5	-1,204
1817,212	-1	-0,934
1824,268	-19,5	-3,497
1831,323	1,5	-0,264
1838,427	-5,5	-2,205
1845,501	-13	-2,556
1852,55	4,5	-0,003
1859,605	-15,5	-3,346
1866,679	-4,5	-1,683
1873,723	4	-0,424
1880,784	-19,5	-3,49
1887,834	0	-0,802
1894,901	-1,5	-1,255
1901,951	-19	-3,499
1909,007	3,5	-0,095
1916,062	-5,5	-2,16
1923,124	-13,5	-2,81
1930,174	4,5	-0,004
1937,242	-12,5	-3,102
1944,315	-3,5	-1,61
1951,359	1,5	-0,591
1958,426	-19	-3,493
1965,559	2,5	-0,208
1972,651	-4,5	-2,062
1979,749	-12	-2,638
1986,822	4,5	-0,001
1993,878	-18,5	-3,466
2000,951	0	-0,811
2008,025	-2	-1,329
2015,087	-19	-3,5
2022,154	4	-0,041
2029,216	-8	-2,582
2036,313	-6,5	-2,023
2043,363	4,5	-0,096
2050,419	-18,5	-3,467
2057,486	-0,5	-0,94
2064,542	-1,5	-1,285
2071,586	-18,5	-3,462
2078,641	4,5	-0,022
2085,703	-9,5	-2,845
2092,776	-4,5	-1,934
2099,862	2,5	-0,532
2106,965	-18,5	-3,496
2114,039	3	-0,137
2121,089	-5	-2,199
2128,174	-9	-2,364
2135,23	4,5	-0,001
2142,279	-15	-3,412
2149,317	-3	-1,565
2156,378	3	-0,567
2163,428	-18	-3,491
2170,508	0,5	-0,594
2177,581	-2	-1,556
2184,625	-17,5	-3,5
2191,674	4	-0,062
2198,73	-5	-2,327
2205,786	-12,5	-2,784
2212,829	4,5	-0,006
2219,873	-10	-3,005
2226,965	-4,5	-1,916
2234,032	4,5	-0,12
2241,124	-17	-3,476
2248,234	0	-0,709
2255,379	-2,5	-1,741
2262,41	-17,5	-3,372
2269,508	4,5	-0,016
2276,564	-7,5	-2,687
2283,619	-8	-2,419
2290,657	4,5	-0,003
2297,712	-10,5	-3,146
2304,786	-4	-1,875
2311,842	4,5	-0,095
2318,891	-16	-3,462
2325,947	-1	-1,232
2333,014	0,5	-0,831
2340,07	-17	-3,496
2347,138	1	-0,59
2354,181	-1,5	-1,383
2361,249	-16,5	-3,486
2368,329	4,5	-0,024
2375,39	-6	-2,619
2382,434	-7	-2,378
2389,537	4,5	0
2396,605	-16	-3,474
2403,69	0	-0,725
2410,782	-2,5	-1,605
2417,838	-16,5	-3,352
2424,887	4	-0,029
2431,949	-8,5	-2,822
2439,07	-3	-1,816
2446,15	1	-0,63
2453,23	-16	-3,496
2460,297	2	-0,299
2467,353	-3	-1,995
2474,402	-11,5	-2,88
2481,452	4,5	-0,005
2488,502	-9	-3,207
2495,557	-2	-1,691
2502,631	1	-0,645
2509,674	-14	-3,494
2516,73	2	-0,349
2523,773	-2,5	-1,765
2530,841	-11,5	-2,98
2537,897	4,5	-0,009
2544,952	-7,5	-3,015
2552,05	-2	-1,882
2559,123	3	-0,46
2566,191	-13	-3,494
2573,235	1,5	-0,442
2580,29	-2	-1,804
2587,364	-9,5	-3,031
2594,408	4,5	-0,011
2601,469	-6	-3,072
2608,549	-1,5	-1,745
2615,592	4,5	-0,253
2622,648	-12	-3,487
2629,739	1	-0,715
2636,819	-1,5	-1,571
2643,881	-11,5	-3,194
2650,954	4,5	-0,011
2658,028	-6	-3,093
2665,078	-0,5	-1,585
2672,127	2,5	-0,604
2679,207	-12	-3,496
2686,256	3	-0,145
2693,33	-2,5	-2,32
2700,379	-4,5	-2,449
2707,429	4,5	-0,001
2714,491	-9,5	-3,434
2721,546	0	-1,073
2728,602	0	-1,078
2735,652	-11,5	-3,498
2742,713	3,5	-0,076
2749,757	-3	-2,347
2756,866	-2,5	-2,116
2763,922	4,5	-0,085
2771,007	-11	-3,487
2778,051	0,5	-0,874
2785,131	-1	-1,551
2792,198	-11	-3,276
2799,296	4,5	-0,007
2806,381	-6	-3,229
2813,431	-0,5	-1,655
2820,487	2,5	-0,506
2827,548	-10	-3,496
2834,61	1,5	-0,516
2841,719	-1,5	-1,866
2848,769	-10	-3,235
2855,855	4	-0,016
2862,922	-4,5	-2,834
2870,008	-1,5	-2,079
2877,063	4,5	0
2884,131	-9	-3,437
2891,169	0	-1,599
2898,236	3	-0,541
2905,274	-9,5	-3,486
2912,317	0,5	-0,887
2919,367	-0,5	-1,132
2926,44	-9,5	-3,498
2933,496	2	-0,152
2940,6	-2	-2,111
2947,649	-6,5	-2,956
2954,723	4,5	-0,008
2961,779	-5	-3,006
2968,834	-1,5	-2,122
2975,878	4,5	-0,001
2982,951	-8	-3,431
2990,001	0	-1,308
2997,069	1,5	-0,678
3004,124	-9,5	-3,494
3011,162	1,5	-0,616
3018,223	-0,5	-1,533
3025,309	-9,5	-3,372
3032,37	4,5	-0,023
3039,426	-2,5	-2,5
3046,506	-3	-2,529
3053,579	4,5	-0,003
3060,635	-5,5	-3,214
3067,702	-0,5	-1,879
3074,752	4,5	-0,13
3081,814	-8,5	-3,464
3088,864	0	-1,404
3095,913	2,5	-0,502
3102,968	-9	-3,487
3110,024	0	-1,094
3117,074	1	-0,712
3124,153	-9	-3,491
3131,209	0,5	-0,845
3138,252	0	-1,007
3145,308	-9	-3,497
3152,352	1	-0,63
3157,037	4,5	0