File: Cycling_tests/_20perc/_3gap/entrada/_5.txt
Time (s)	Load (N)	Displacement (mm)
0	0	-0,041
11,682	-31	-3,06
22,733	-3	-0,506
33,802	2	-0,298
168,861	3,5	-0,004
179,402	3,5	-0,002
189,98	3	-0,001
200,786	-4	-1,264
250,768	2	-0,115
260,991	-8	-1,602
271,125	-25,5	-3,5
281,264	-21	-3,317
291,248	-1,5	-0,798
301,737	0	-0,695
311,868	3,5	-0,013
321,972	-5,5	-1,195
332,514	-4,5	-1,13
342,575	-25	-3,5
352,684	-19,5	-3,242
362,679	0	-0,733
372,717	3	-0,041
382,67	-17	-2,355
392,696	-24	-3,477
402,577	-3	-1,068
412,825	3,5	-0,002
422,652	-11,5	-1,969
432,377	-16,5	-2,987
442,193	3,5	-0,002
451,936	-14,5	-2,374
461,71	-15	-2,923
471,46	3,5	-0,004
481,173	-16,5	-2,578
490,832	-8	-2,048
500,462	0	-0,378
510,025	-22,5	-3,454
519,702	4	-0,001
529,326	-15	-2,368
538,979	-11,5	-2,526
548,543	2	-0,092
558,13	-24	-3,498
567,682	0,5	-0,63
577,257	-9	-1,895
586,887	-15	-2,884
596,48	3,5	-0,026
606,074	-24	-3,354
615,673	-3	-1,197
625,332	0	-0,53
671,92	-9,5	-2,402
681,549	3	-0,056
691,155	-23,5	-3,499
700,724	-1,5	-0,87
710,282	-4,5	-1,469
719,821	-15	-2,972
729,384	3,5	-0,031
739,014	-23	-3,499
748,571	-1	-0,897
758,177	-4,5	-1,459
767,764	-16,5	-3,143
777,322	3,5	-0,016
786,867	-22,5	-3,498
796,431	2,5	-0,556
805,958	-12	-2,253
815,474	-6,5	-2,032
825,007	-0,5	-0,572
834,558	-21,5	-3,463
844,122	4	-0,001
927,289	1	-0,315
936,763	-17,5	-3,35
946,338	4	-0,005
955,902	-22	-3,184
965,501	-3	-1,316
975,503	3,5	-0,008
985,012	-22	-3,499
994,509	3,5	-0,201
1004,049	-13,5	-2,492
1013,6	-4,5	-1,628
1023,128	-3,5	-1,299
1032,643	-11,5	-2,781
1042,177	1	-0,18
1051,734	-21,5	-3,485
1061,268	4	-0,002
1070,765	-21,5	-3,497
1080,328	3	-0,339
1089,814	-17	-2,786
1099,323	-3	-1,22
1108,809	-8	-1,938
1118,318	-6,5	-2,097
1127,828	-1,5	-0,929
1137,289	-10,5	-2,702
1146,793	0,5	-0,462
1156,314	-17,5	-3,348
1165,824	3,5	-0,041
1175,339	-21,5	-3,493
1184,843	4	-0,002
1194,34	-21,5	-3,5
1203,868	1	-0,542
1213,341	-16	-2,793
1222,868	-2,5	-1,202
1232,372	-6	-1,798
1241,821	-4,5	-1,854
1251,283	-4	-1,584
1260,828	-8,5	-2,421
1270,368	0	-0,505
1279,847	-14,5	-3,186
1289,399	3	-0,059
1298,884	-21	-3,486
1308,381	4	-0,002
1317,867	-21	-3,499
1327,382	1	-0,635
1336,868	-13	-2,517
1346,389	-3	-1,43
1355,929	-4,5	-1,494
1365,438	-8	-2,376
1374,912	-1,5	-0,947
1384,919	-21	-3,438
1394,405	4	-0,175
1403,896	-16,5	-2,905
1413,358	0	-0,727
1422,855	-11,5	-2,44
1432,328	-2	-1,246
1441,808	-8	-2,006
1451,239	-3,5	-1,582
1460,719	-4,5	-1,569
1470,21	-7,5	-2,33
1479,672	-1	-0,995
1489,175	-13,5	-3,075
1498,667	2	-0,113
1508,134	-19	-3,439
1517,613	3,5	-0,026
1527,045	-19,5	-3,461
1536,53	4	-0,015
1546,004	-20,5	-3,496
1555,489	4	-0,002
1564,939	-20,5	-3,496
1574,394	4	-0,005
1583,88	-20,5	-3,496
1593,701	-2,5	-1,246
1603,205	-5,5	-1,838
1612,636	-3	-1,446
1622,091	-6,5	-1,947
1631,529	-3	-1,465
1641,003	-5,5	-1,829
1650,422	-3	-1,439
1659,859	-8	-2,149
1669,303	-2,5	-1,253
1678,728	-11,5	-2,492
1688,142	-0,5	-0,777
1697,603	-13	-2,633
1707,065	-0,5	-0,839
1716,538	-12	-2,532
1725,988	-1,5	-1,024
1735,455	-10,5	-2,415
1744,875	-1,5	-0,915
1754,3	-12,5	-2,601
1763,701	0	-0,704
1773,109	-17	-2,87
1782,504	3,5	-0,329
1791,936	-19,5	-3,169
1801,395	3	-0,48
1810,793	-19,5	-3,257
1820,206	4	-0,349
1829,638	-19,5	-3,094
1839,087	0	-0,727
1848,495	-13,5	-2,639
1857,914	-1	-0,862
1867,303	-14,5	-2,69
1876,729	-1	-0,894
1886,16	-11	-2,405
1895,586	-2	-1,178
1905,005	-13	-2,564
1914,431	-1	-0,936
1923,868	-10,5	-2,441
1933,276	-1	-0,994
1942,731	-9	-2,238
1952,151	-2	-1,342
1961,57	-7	-2,029
1970,96	-2,5	-1,424
1980,823	3,5	-0,045
1990,206	-17,5	-3,439
1999,608	3	-0,094
2009,033	-17,5	-3,458
2018,441	3,5	-0,047
2027,866	-17,5	-3,461
2037,268	4	-0,022
2046,699	-18,5	-3,482
2056,095	4	-0,016
2065,52	-18	-3,482
2074,946	4	-0,015
2084,335	-18	-3,478
2093,761	4	-0,015
2103,216	-18	-3,491
2112,63	4	-0,011
2122,079	-18	-3,494
2131,486	4	-0,006
2140,924	-18	-3,497
2150,331	4	-0,003
2159,739	-18	-3,497
2169,158	4	-0,002
2178,548	-18	-3,496
2187,949	4	-0,006
2197,363	-18	-3,493
2206,776	4	-0,005
2216,226	-18	-3,498
2225,663	4	-0,001
2235,046	-17,5	-3,498
2244,472	4	-0,002
2253,91	-17,5	-3,499
2263,293	4	-0,001
2272,73	-17,5	-3,499
2282,12	4	0
2291,515	-17,5	-3,272
2300,923	3	-0,45
2310,324	-14,5	-2,914
2319,75	1	-0,656
2329,175	-10,5	-2,558
2338,565	-0,5	-0,906
2347,96	-10	-2,581
2357,362	-1	-0,969
2366,751	-9	-2,459
2376,14	-1,5	-1,172
2385,542	-5	-2,064
2394,973	-3	-1,629
2404,375	-3,5	-1,774
2413,794	-3,5	-1,887
2423,292	-1	-1,094
2432,717	-6,5	-2,56
2442,119	-0,5	-1,04
2451,526	-5,5	-2,345
2460,952	-1	-1,014
2470,347	-6	-2,428
2479,742	-0,5	-0,953
2489,18	-7,5	-2,857
2498,623	1,5	-0,231
2508,049	-13	-3,4
2517,51	4	-0,013
2526,936	-15	-3,491
2536,367	4	-0,004
2545,775	-15	-3,496
2555,164	4	-0,006
2564,56	-14,5	-3,493
2573,997	4	-0,006
2583,399	-14	-3,497
2592,818	4	-0,001
2602,213	-14	-3,499
2611,645	4	-0,023
2621,04	-13,5	-3,304
2630,442	2	-0,492
2639,885	-7,5	-2,701
2649,287	0	-0,775
2658,676	-7	-2,74
2668,102	-0,5	-1,024
2677,545	-3	-2,109
2686,965	-2	-1,696
2696,372	-1,5	-1,667
2705,81	-2,5	-1,967
2715,229	-1	-1,504
2724,66	-3	-2,031
2734,05	-0,5	-1,432
2743,44	-2,5	-2,026
2752,859	-0,5	-1,367
2762,266	-3	-2,25
2771,674	0	-1,212
2781,069	-3	-2,132
2790,477	0	-1,263
2799,878	-3,5	-2,362
2809,274	0	-1,086
2818,699	-4,5	-2,642
2828,089	0	-0,779
2837,496	-5	-2,818
2846,892	0,5	-0,578
2856,281	-5	-2,891
2865,694	1	-0,441
2875,084	-6,5	-3,16
2884,515	1,5	-0,18
2893,923	-8,5	-3,347
2903,342	1,5	-0,189
2912,744	-7,5	-3,255
2922,145	1	-0,353
2931,535	-5,5	-3,057
2940,93	0,5	-0,519
2950,326	-5,5	-2,985
2959,727	1	-0,417
2969,123	-4,5	-2,832
2978,53	0,5	-0,694
2987,956	-5	-2,895
2997,471	1,5	-0,156
3007,058	-10,5	-3,487
3016,532	4	-0,003
3025,927	-11	-3,496
3035,341	4	-0,003
3044,772	-10,5	-3,498
3054,162	4	-0,004
3063,551	-10,5	-3,492
3072,965	4	-0,007
3082,372	-10,5	-3,493
3091,779	4	-0,006
3101,205	-10,5	-3,496
3110,601	4	-0,004
3120,008	-10,5	-3,495
3129,415	4	-0,005
3137,935	4	-0,001