File: ensaios_Ciclicos/_50perc/_1gap/entrada/_3.txt
Time (s)	Load (N)	Displacement (mm)
72,865	0	-0,206
80,383	-14,5	-3,335
87,903	0	-0,193
95,4	-11	-3,024
102,906	-1,5	-0,676
255,891	1,5	-0,037
263,414	-15	-3,482
270,946	1,5	-0,015
278,443	-15	-3,469
285,955	1,5	-0,036
438,742	2	-0,012
446,224	-14,5	-3,474
453,723	1,5	-0,039
461,223	-13	-3,424
468,717	0,5	-0,164
476,216	-10,5	-3,132
483,704	0	-0,57
491,209	-9	-2,909
498,709	-1	-0,73
506,22	-7	-2,608
731,13	2	-0,011
738,611	-13,5	-3,477
746,093	1,5	-0,037
753,58	-12,5	-3,415
761,062	0,5	-0,149
768,543	-9	-3,149
776,026	0	-0,582
783,513	-7	-2,749
790,988	-1	-0,948
798,47	-5	-2,376
805,951	-2	-1,286
813,451	-4	-2,062
820,933	-4,5	-1,822
828,408	-2	-1,347
1234,087	0	-0,651
1241,562	-9,5	-2,816
1249,038	0	-0,641
1256,508	-11,5	-2,99
1263,989	1,5	-0,45
1271,465	-11	-2,971
1278,94	2	-0,358
1286,41	-13	-3,3
1293,885	2	-0,246
1301,361	-12,5	-3,37
1308,831	2	-0,001
1316,312	-12,5	-3,5
1323,782	2	-0,001
1331,257	-13	-3,499
1338,733	2	-0,002
1346,226	-13	-3,498
1353,696	2	-0,005
1361,166	-12,5	-3,483
1368,641	2	-0,017
1376,117	-12,5	-3,471
1383,592	1,5	-0,054
1391,08	-11	-3,426
1398,555	1	-0,161
1406,031	-9	-3,23
1413,507	0	-0,353
1420,982	-7,5	-2,993
1428,452	-0,5	-0,796
1435,927	-5	-2,422
1443,397	-2,5	-1,417
1450,872	-3	-1,827
1458,348	-4,5	-1,943
1465,83	-1,5	-1,38
1473,299	-7,5	-2,443
1480,775	0,5	-0,594
1488,244	-12,5	-3,274
1495,726	2	-0,003
1503,196	-12,5	-3,499
1510,677	2	-0,001
1518,147	-12,5	-3,499
1525,616	2	-0,002
1533,086	-12,5	-3,488
1540,561	2	-0,032
1548,031	-11,5	-3,433
1555,512	1,5	-0,091
1562,982	-9	-3,231
1570,464	0	-0,544
1577,933	-5,5	-2,595
1585,403	-2	-1,45
1592,872	-2,5	-1,835
1600,342	-5,5	-2,248
1607,817	-1	-0,937
1615,293	-8,5	-2,717
1622,757	1,5	-0,456
1630,226	-12	-3,377
1637,696	2	-0,001
1645,165	-12,5	-3,498
1652,641	2	-0,004
1660,11	-12,5	-3,493
1667,58	1,5	-0,028
1675,056	-11,5	-3,45
1682,525	1	-0,16
1690,007	-9	-3,219
1697,476	0	-0,415
1704,958	-7	-2,96
1712,428	-0,5	-0,873
1719,897	-4,5	-2,362
1727,367	-1,5	-1,412
1734,836	-2,5	-1,706
1742,306	-3,5	-1,971
1749,775	-1,5	-1,402
1757,245	-6	-2,378
1764,72	-0,5	-0,846
1772,202	-9	-2,858
1779,684	1,5	-0,266
1787,147	-12	-3,4
1794,635	1,5	-0,374
1802,104	-12	-3,161
1809,574	1,5	-0,296
1817,05	-12	-3,342
1824,519	2	-0,001
1831,995	-12,5	-3,499
1839,458	1,5	-0,003
1846,934	-12,5	-3,496
1854,409	2	-0,007
1861,879	-12	-3,482
1869,349	1,5	-0,024
1876,812	-12	-3,472
1884,288	1,5	-0,041
1891,757	-11	-3,43
1899,239	1,5	-0,099
1906,72	-8,5	-3,249
1914,202	0	-0,304
1921,666	-8	-3,152
1929,141	0	-0,53
1936,611	-5,5	-2,776
1944,08	0	-0,776
1951,55	-4	-2,392
1959,031	-1	-1,286
1966,507	-3	-2,122
1973,971	-2	-1,484
1981,44	-3	-1,867
1988,916	-3	-1,743
1996,385	-1,5	-1,582
2003,861	-4	-2,104
2011,33	-1,5	-1,24
2018,812	-6,5	-2,543
2026,288	-0,5	-0,77
2033,751	-9,5	-2,971
2041,221	2	-0,235
2048,69	-11,5	-3,5
2056,16	2	-0,001
2063,635	-11,5	-3,498
2071,111	2	-0,003
2078,581	-11	-3,496
2086,05	2	-0,008
2093,52	-11	-3,482
2100,989	1,5	-0,042
2108,459	-9,5	-3,412
2115,928	1	-0,111
2123,398	-8	-3,304
2130,868	1	-0,145
2138,331	-8	-3,264
2145,807	0,5	-0,352
2153,282	-6,5	-2,977
2160,746	0	-0,656
2168,227	-5	-2,708
2175,685	-0,5	-1,024
2183,167	-3	-2,18
2190,636	-1,5	-1,488
2198,106	-2	-1,716
2205,581	-3	-1,974
2213,051	-1	-1,09
2220,52	-6	-2,583
2227,996	0	-0,592
2235,46	-10	-3,16
2242,929	2	-0,076
2250,411	-10,5	-3,5
2257,886	2	-0,001
2265,356	-10,5	-3,499
2272,831	2	-0,002
2280,295	-10,5	-3,499
2287,765	2	-0,002
2295,228	-10,5	-3,498
2302,704	2	-0,003
2310,179	-10,5	-3,497
2317,655	2	-0,004
2325,124	-10,5	-3,495
2332,6	2	-0,008
2340,064	-10	-3,48
2347,533	2	-0,04
2354,997	-9	-3,419
2362,466	1,5	-0,107
2369,93	-8,5	-3,373
2377,393	1	-0,143
2384,863	-8	-3,278
2392,333	1	-0,161
2399,808	-7	-3,239
2407,278	0	-0,303
2414,753	-6,5	-3,132
2422,217	0	-0,511
2429,687	-5,5	-2,936
2437,156	0	-0,656
2444,626	-5	-2,77
2452,089	0	-0,714
2459,565	-5,5	-2,9
2467,04	0	-0,476
2474,51	-5,5	-2,972
2481,979	0	-0,541
2489,449	-4,5	-2,694
2496,919	0	-0,782
2504,388	-5	-2,778
2511,858	0	-0,73
2519,327	-4,5	-2,68
2526,797	0	-0,811
2534,285	-5	-2,763
2541,748	0	-0,732
2549,218	-4,5	-2,658
2556,687	0	-0,877
2564,151	-3,5	-2,482
2571,626	-0,5	-0,937
2579,096	-3,5	-2,379
2586,566	-1	-1,23
2594,035	-3	-2,143
2601,505	-1,5	-1,44
2608,98	-2	-1,82
2616,456	-2	-1,796
2623,925	-1	-1,43
2631,389	-4,5	-2,418
2638,859	-0,5	-0,886
2646,328	-6,5	-2,834
2653,792	0,5	-0,564
2661,267	-7,5	-2,894
2668,731	1,5	-0,412
2676,2	-10	-3,291
2683,664	2	-0,064
2691,134	-9,5	-3,486
2698,597	2	-0,006
2706,085	-9,5	-3,5
2713,548	1,5	-0,001
2721,018	-10	-3,499
2728,487	1,5	-0,002
2735,951	-9,5	-3,496
2743,421	2	-0,011
2750,89	-9	-3,482
2758,36	2	-0,03
2765,817	-8,5	-3,452
2773,287	1,5	-0,06
2780,751	-8	-3,424
2788,226	1	-0,129
2795,696	-6	-3,27
2803,159	0,5	-0,334
2810,623	-5,5	-3,11
2818,092	0	-0,34
2825,556	-5,5	-3,101
2833,013	0	-0,462
2840,477	-6	-3,244
2847,941	1	-0,172
2855,404	-7	-3,396
2862,862	0,5	-0,176
2870,337	-5,5	-3,258
2877,801	1	-0,103
2885,265	-5,5	-3,257
2892,74	0	-0,258
2900,21	-6,5	-3,379
2907,679	1	-0,105
2915,149	-6,5	-3,378
2922,618	1,5	-0,076
2930,088	-7,5	-3,45
2937,552	1,5	-0,021
2945,033	-8	-3,494
2952,503	2	-0,003
2959,96	-8	-3,499
2967,424	2	-0,179
2974,893	-7,5	-3,175
2982,363	1	-0,483
2989,832	-5	-2,786
2997,302	0	-0,922
3004,766	-4,5	-2,711
3012,241	0	-0,836
3019,705	-4	-2,595
3027,168	-0,5	-1,302
3034,638	-2,5	-2,169
3042,108	-1	-1,353
3049,571	-2,5	-2,207
3057,029	-1	-1,41
3064,492	-2	-2,091
3071,968	-0,5	-1,43
3079,437	-1	-1,929
3086,895	-1	-1,726
3094,359	-0,5	-1,532
3101,828	-2	-2,124
3109,292	0	-1,17
3116,767	-3,5	-2,792
3124,231	0	-0,588
3131,7	-4,5	-3,058
3139,164	0,5	-0,357
3146,64	-5,5	-3,346
3154,109	1,5	-0,078
3161,573	-7	-3,452
3169,036	2	-0,033
3176,512	-7,5	-3,489
3183,981	2	-0,007
3191,451	-7,5	-3,497
3198,927	2	-0,002
3206,384	-7,5	-3,499
3213,854	2	-0,001
3215,996	2	-0,001