File: Cycling_tests/_30perc/_4gap/entrada/_1.txt
Time (s)	Load (N)	Displacement (mm)
0	-0,5	-0,035
10,804	0	-0,429
21,514	0,5	-0,296
32,229	1	-0,001
42,956	1	-0,041
53,666	1	-0,131
64,399	1,5	0
75,115	1,5	-0,001
85,86	0	-0,51
96,587	-1	-0,699
107,315	-2,5	-0,935
118,06	-4,5	-1,209
128,788	-4,5	-1,306
139,525	-5	-1,438
150,29	-5,5	-1,572
161,03	-6	-1,645
171,799	-7,5	-1,889
182,562	-9	-2,071
193,321	-10,5	-2,287
204,059	-10,5	-2,393
214,823	-12,5	-2,617
225,604	-13,5	-2,725
236,379	-15	-2,908
247,149	-15	-3,074
257,894	-20	-3,404
268,651	-22	-3,471
279,445	-22	-3,484
290,202	-22	-3,486
300,96	-22,5	-3,492
311,717	-22,5	-3,497
322,492	-22	-3,499
333,268	-22	-3,499
344,031	-22	-3,499
354,789	-22	-3,432
365,558	-22	-3,498
376,333	-21,5	-3,237
387,115	-21,5	-3,208
397,89	-20,5	-3,074
408,666	-19,5	-3,047
419,435	-21	-3,191
430,222	-21,5	-3,499
440,98	-21,5	-3,5
451,755	-21,5	-3,499
462,542	-21,5	-3,499
473,312	-21	-3,499
484,081	-21,5	-3,5
494,869	-21	-3,499
505,626	-21	-3,499
516,425	-21	-3,499
527,213	-21	-3,305
537,97	-20	-3,095
548,745	-15,5	-2,747
559,533	-11,5	-2,322
570,296	-9,5	-2,082
581,084	-7	-1,74
591,865	-5	-1,517
602,646	-3,5	-1,208
613,44	-2	-0,891
624,203	-1	-0,719
634,973	-0,5	-0,593
645,736	-0,5	-0,544
656,505	0,5	-0,164
667,281	2	-0,038
678,056	2,5	-0,004
688,807	2,5	-0,001
699,571	2	-0,288
710,328	0,5	-0,532
721,122	-2,5	-1,167
731,897	-2,5	-1,181
742,654	-2,5	-1,279
753,418	-3,5	-1,51
764,163	-4,5	-1,692
774,909	-5,5	-1,966
785,66	-6	-2,088
796,423	-6,5	-2,196
807,181	-7	-2,284
817,938	-8	-2,388
828,689	-9	-2,553
839,453	-9,5	-2,661
850,222	-11	-2,804
860,974	-12,5	-2,953
871,731	-14,5	-3,249
882,488	-15	-3,341
893,24	-18,5	-3,447
903,985	-19,5	-3,478
914,743	-19,5	-3,487
925,494	-19,5	-3,494
936,269	-19,5	-3,497
947,039	-19,5	-3,497
957,79	-19,5	-3,499
968,541	-19,5	-3,466
979,293	-18	-3,089
990,062	-14,5	-2,702
1000,808	-11	-2,434
1011,577	-8,5	-2,061
1022,322	-7,5	-1,916
1033,08	-5	-1,631
1043,831	-2	-1,057
1054,582	0	-0,534
1065,328	0	-0,322
1076,079	1	-0,149
1086,837	2	-0,046
1097,594	2	-0,026
1108,345	2,5	-0,008
1119,097	2,5	-0,004
1129,848	2,5	-0,002
1140,6	2,5	-0,002
1151,357	2,5	-0,002
1162,114	2,5	-0,002
1172,86	2,5	-0,001
1183,611	3	-0,002
1194,369	2,5	-0,001
1205,126	2,5	-0,001
1215,877	2	-0,002
1226,635	2,5	-0,001
1237,392	2,5	-0,001
1248,131	3	-0,002
1258,871	2,5	-0,001
1269,628	2,5	-0,001
1280,362	2,5	-0,101
1291,107	1,5	-0,386
1301,864	0,5	-0,639
1312,616	-0,5	-0,901
1323,361	-1,5	-1,009
1334,125	-2,5	-1,334
1344,876	-3,5	-1,75
1355,621	-4,5	-2,032
1366,373	-7,5	-2,463
1377,112	-8	-2,584
1387,869	-12	-3,044
1398,627	-13,5	-3,253
1409,372	-14,5	-3,353
1420,124	-15	-3,363
1430,869	-13,5	-3,224
1441,602	-14,5	-3,32
1452,348	-14,5	-3,317
1463,099	-18	-3,486
1473,857	-18	-3,485
1484,614	-18,5	-3,493
1495,359	-18	-3,493
1506,129	-18	-3,496
1516,892	-18	-3,496
1527,644	-18	-3,496
1538,401	-18,5	-3,497
1549,158	-18,5	-3,498
1559,928	-18	-3,499
1570,691	-18,5	-3,364
1581,442	-18	-3,278
1592,188	-15,5	-3,037
1602,945	-15	-2,858
1613,703	-12	-2,631
1624,43	-12	-2,644
1635,175	-11	-2,552
1645,927	-10,5	-2,569
1656,672	-10	-2,47
1667,43	-9	-2,34
1678,175	-9,5	-2,386
1688,926	-9	-2,322
1699,672	-9	-2,314
1710,423	-8	-2,273
1721,168	-9	-2,308
1731,908	-10	-2,373
1742,653	-9	-2,254
1753,405	-5,5	-1,798
1764,156	-4	-1,504
1774,907	-3,5	-1,457
1785,671	-4	-1,487
1796,422	-4	-1,53
1807,168	-3,5	-1,432
1817,925	-2,5	-1,142
1828,67	-2	-1,05
1839,41	-1,5	-0,929
1850,161	-1	-0,795
1860,912	-0,5	-0,674
1871,664	0	-0,408
1882,415	1	-0,167
1893,143	0,5	-0,189
1903,906	1,5	-0,088
1914,663	2,5	-0,022
1925,403	2,5	-0,019
1936,154	2,5	-0,009
1946,894	2,5	-0,004
1957,657	2,5	-0,004
1968,402	2,5	-0,002
1979,148	2,5	-0,002
1989,899	3	-0,001
2000,644	3	-0,001
2011,39	2,5	-0,001
2022,135	2,5	0
2032,881	2,5	0
2043,626	3	-0,07
2054,377	3	-0,141
2065,123	3	-0,184
2075,868	2,5	-0,126
2086,632	3	-0,001
2097,395	2,5	-0,001
2108,146	2,5	-0,001
2118,892	2,5	-0,002
2129,643	3	-0,003
2140,4	3	-0,003
2151,14	3	-0,002
2161,885	3	-0,002
2172,655	3	-0,002
2183,4	3	-0,001
2194,139	2,5	-0,001
2204,891	2,5	-0,001
2215,636	3	-0,002
2226,388	3	-0,004
2237,139	2,5	-0,003
2247,89	3	-0,002
2258,624	2,5	0
2269,369	3	-0,115
2280,121	2	-0,415
2290,878	1,5	-0,556
2301,617	2,5	-0,232
2312,363	2,5	0
2323,108	3	-0,001
2333,853	3	-0,002
2344,593	3	-0,003
2355,338	3	-0,005
2366,084	2,5	-0,019
2376,835	2,5	-0,035
2387,574	2	-0,068
2398,326	2	-0,097
2409,069	1,5	-0,161
2419,817	1,5	-0,14
2430,562	1,5	-0,113
2441,307	1,5	-0,126
2452,065	0,5	-0,328
2462,81	0	-0,442
2473,567	0,5	-0,454
2484,319	0	-0,683
2495,07	0	-0,928
2505,816	-1	-1,198
2516,561	-1,5	-1,477
2527,414	-1,5	-1,483
2538,166	-3	-1,743
2548,905	-5	-2,202
2559,669	-6	-2,414
2570,408	-10,5	-2,952
2581,153	-13,5	-3,257
2591,887	-13,5	-3,5
2602,632	-13,5	-3,499
2613,389	-13,5	-3,498
2624,147	-13,5	-3,498
2634,892	-13,5	-3,497
2645,65	-13,5	-3,497
2656,395	-13	-3,493
2667,14	-13	-3,489
2677,892	-13	-3,483
2688,643	-13	-3,481
2699,4	-13	-3,472
2710,145	-12	-3,46
2720,902	-12	-3,455
2731,648	-11	-3,431
2742,387	-10,5	-3,4
2753,144	-10	-3,379
2763,902	-10	-3,407
2774,647	-8,5	-3,331
2785,387	-5,5	-2,965
2796,132	-5,5	-2,772
2806,877	-4,5	-2,586
2817,623	-3,5	-2,471
2828,362	-4	-2,603
2839,102	-4	-2,479
2849,865	-4	-2,614
2860,61	-4	-2,51
2871,362	-4,5	-2,659
2882,107	-4	-2,521
2892,847	-3,5	-2,461
2903,592	-3	-2,309
2914,337	-2,5	-2,221
2925,077	-2	-1,98
2935,822	-2	-1,912
2946,561	-2	-1,874
2957,307	-1,5	-1,907
2968,052	-1,5	-1,9
2978,792	-1,5	-1,833
2989,537	-1,5	-1,877
3000,288	-1,5	-1,978
3011,022	-1,5	-1,878
3021,761	-2	-1,978
3032,5	-1,5	-1,775
3043,246	-1,5	-1,739
3054,003	-2	-1,95
3064,749	-2	-1,994
3075,494	-2	-2,022
3086,24	-1,5	-1,96
3096,985	-1,5	-1,798
3107,736	-1,5	-1,712
3118,488	-1	-1,446
3129,233	-1	-1,262
3139,984	-0,5	-1,146
3150,718	-0,5	-1,2
3161,457	-0,5	-1,224
3172,203	-0,5	-1,278
3182,948	-1	-1,35
3193,693	-0,5	-1,311
3204,451	-1	-1,511
3215,202	-1	-1,569
3221,316	3	0