File: Cycling_tests/_30perc/_4gap/entrada/_2.txt
Time (s)	Load (N)	Displacement (mm)
0	-0,5	-0,031
10,581	1	-0,001
21,045	1	-0,019
31,538	-1,5	-0,338
42,008	-9	-1,467
52,495	-12,5	-1,77
62,988	-15	-2,184
73,5	-19,5	-2,496
83,981	-21	-2,831
94,469	-24	-3,175
104,962	-24	-3,216
115,461	-24,5	-3,315
125,985	-24	-3,5
136,508	-24	-3,499
147,008	-24	-3,496
157,525	-24	-3,492
168,024	-23,5	-3,468
178,536	-22	-3,414
189,09	-19	-3,316
199,625	-15	-2,956
210,154	-14,5	-2,808
220,671	-12,5	-2,611
231,189	-8,5	-2,275
241,724	-8	-2,099
252,272	-7	-1,876
262,813	-5,5	-1,608
273,342	-3	-1,168
283,896	-0,5	-0,71
294,419	2	-0,065
304,931	2	-0,006
315,472	2	-0,048
326,001	0	-0,31
336,525	-0,5	-0,531
347,048	-0,5	-0,506
357,578	-0,5	-0,495
368,125	-0,5	-0,537
378,678	-1	-0,549
389,214	-2,5	-0,926
399,755	-4	-1,158
410,297	-4,5	-1,31
420,826	-6	-1,544
431,373	-6	-1,563
441,915	-7	-1,688
452,45	-7	-1,673
462,979	-7,5	-1,764
473,521	-10	-2,062
484,038	-12,5	-2,403
494,58	-13	-2,449
505,103	-13,5	-2,445
515,644	-12	-2,336
526,174	-12,5	-2,388
536,697	-16	-2,795
547,227	-21	-3,029
557,745	-21	-3,37
568,297	-21	-3,249
578,827	-21	-3,222
589,374	-20	-3,06
599,892	-21	-2,969
610,433	-15	-2,669
620,974	-12,5	-2,473
631,498	-12	-2,375
642,021	-13	-2,474
652,545	-13,5	-2,491
663,08	-13,5	-2,456
673,609	-11,5	-2,321
684,127	-12	-2,344
694,65	-12	-2,319
705,186	-10	-2,176
715,721	-11,5	-2,336
726,25	-12,5	-2,398
736,774	-12	-2,333
747,297	-13	-2,446
757,833	-13,5	-2,532
768,368	-12,5	-2,426
778,897	-11,5	-2,362
789,421	-12,5	-2,444
799,956	-12	-2,439
810,468	-11	-2,309
820,985	-9	-2,05
831,508	-7	-1,803
842,032	-5	-1,496
852,555	-3,5	-1,314
863,079	-1,5	-0,922
873,602	-0,5	-0,541
884,125	0,5	-0,128
894,637	2	-0,058
905,172	2,5	-0,029
915,69	3	-0,015
926,207	2,5	-0,01
936,724	2,5	-0,013
947,236	2,5	-0,01
957,765	2,5	-0,012
968,289	2,5	-0,01
978,824	2,5	-0,004
989,353	3	-0,002
999,877	2,5	-0,001
1010,412	3	-0,228
1020,924	1,5	-0,472
1031,459	-0,5	-0,786
1041,976	-0,5	-0,861
1052,494	-1,5	-0,993
1063,017	-2	-1,214
1073,535	-2,5	-1,25
1084,064	-3,5	-1,55
1094,587	-5	-1,988
1105,099	-7	-2,241
1115,616	-9	-2,51
1126,14	-10,5	-2,764
1136,645	-11	-2,884
1147,144	-13	-3,171
1157,692	-17	-3,431
1168,203	-18	-3,455
1178,715	-19	-3,484
1189,226	-19,5	-3,495
1199,743	-19	-3,499
1210,267	-19	-3,173
1220,796	-14	-2,698
1231,308	-8,5	-2,1
1241,813	-6	-1,831
1252,33	-3,5	-1,4
1262,83	-1,5	-0,986
1273,347	-0,5	-0,615
1283,853	0	-0,292
1294,358	1,5	-0,065
1304,881	2,5	-0,009
1315,393	3	-0,001
1325,904	2,5	-0,259
1336,416	0	-0,736
1346,915	-1	-0,949
1357,426	-2,5	-1,296
1367,938	-4	-1,776
1378,455	-4,5	-1,988
1388,961	-6	-2,21
1399,466	-9	-2,65
1409,983	-14	-3,287
1420,495	-16,5	-3,432
1431,018	-18,5	-3,494
1441,536	-18,5	-3,499
1452,041	-18,5	-3,497
1462,546	-15	-2,878
1473,058	-9	-2,285
1483,563	-8,5	-2,214
1494,075	-5	-1,77
1504,592	-3	-1,42
1515,109	-1	-0,825
1525,627	0,5	-0,17
1536,126	2,5	-0,034
1546,626	2,5	-0,007
1557,125	2,5	-0,001
1567,642	0	-0,766
1578,154	-2,5	-1,417
1588,659	-5	-2,074
1599,171	-10,5	-2,895
1609,682	-15,5	-3,391
1620,187	-17,5	-3,468
1630,699	-18	-3,484
1641,21	-17,5	-3,475
1651,722	-17,5	-3,463
1662,209	-18	-3,485
1672,726	-18,5	-3,496
1683,232	-18	-3,499
1693,737	-18	-3,439
1704,231	-17,5	-3,138
1714,748	-16,5	-3,042
1725,259	-12,5	-2,69
1735,771	-8,5	-2,188
1746,27	-6	-1,894
1756,776	-3,5	-1,525
1767,281	-2	-1,119
1777,786	-0,5	-0,649
1788,286	0,5	-0,246
1798,803	2,5	-0,048
1809,315	2,5	-0,048
1819,82	2,5	-0,026
1830,331	3	-0,005
1840,837	2,5	-0,001
1851,336	3	0
1861,848	2,5	-0,096
1872,347	2,5	-0,229
1882,858	0	-0,643
1893,364	0	-0,748
1903,869	-1	-1,06
1914,381	-1,5	-1,29
1924,886	-3	-1,644
1935,385	-3,5	-1,777
1945,885	-3,5	-1,788
1956,402	-5,5	-2,213
1966,908	-9,5	-2,817
1977,401	-12,5	-3,186
1987,912	-15	-3,404
1998,424	-17,5	-3,481
2008,923	-17,5	-3,494
2019,429	-17,5	-3,498
2029,934	-17	-3,499
2040,439	-17	-3,202
2050,951	-12	-2,751
2061,45	-10	-2,523
2071,95	-9	-2,437
2082,461	-7,5	-2,261
2092,966	-5,5	-2,039
2103,466	-3,5	-1,598
2113,977	-1,5	-1,197
2124,477	0	-0,751
2134,988	0,5	-0,303
2145,493	2,5	-0,06
2155,993	1,5	-0,099
2166,498	1,5	-0,096
2176,998	1,5	-0,097
2187,497	2,5	-0,04
2197,996	2,5	-0,034
2208,502	3	-0,022
2219,001	3	-0,008
2229,501	3	-0,002
2239,994	3	-0,115
2250,505	0	-0,68
2261,011	-0,5	-0,985
2271,522	-1,5	-1,478
2282,04	-4	-2,147
2292,539	-5	-2,324
2303,056	-6	-2,656
2313,562	-10	-3,112
2324,067	-14	-3,418
2334,573	-15	-3,489
2345,072	-15	-3,497
2355,583	-15	-3,499
2366,101	-15	-3,289
2376,606	-13	-2,956
2387,118	-8	-2,54
2397,623	-8	-2,483
2408,134	-14	-3,196
2418,64	-8,5	-2,61
2429,151	-5,5	-2,152
2439,657	-3	-1,804
2450,156	-1	-1,271
2460,655	0	-0,613
2471,161	1	-0,211
2481,678	0	-0,731
2492,178	-1	-1,178
2502,689	0	-0,842
2513,188	0	-0,65
2523,694	0	-0,637
2534,205	0	-0,661
2544,705	0	-0,519
2555,204	0	-0,614
2565,721	0	-0,577
2576,227	1,5	-0,234
2586,732	0,5	-0,475
2597,25	0	-0,944
2607,755	-3	-1,897
2618,272	-8	-2,726
2628,784	-13	-3,5
2639,289	-12,5	-3,494
2649,789	-10,5	-3,432
2660,282	-5	-2,642
2670,775	-2,5	-2,043
2681,275	-1,5	-1,475
2691,78	-1	-1,116
2702,28	-1	-1,116
2712,797	0	-0,791
2723,308	1	-0,601
2733,814	3	-0,003
2744,325	3	-0,004
2754,831	3	-0,015
2765,336	1,5	-0,093
2775,841	1	-0,282
2786,353	0	-0,724
2796,846	-1	-1,482
2807,352	-2	-1,888
2817,857	-2,5	-2,05
2828,362	-6,5	-2,818
2838,85	-8	-3,006
2849,355	-6,5	-2,853
2859,861	-7,5	-2,924
2870,366	-6,5	-2,91
2880,877	-6	-2,786
2891,377	-5,5	-2,705
2901,876	-9,5	-3,475
2912,376	-9,5	-3,498
2922,875	-10	-3,494
2933,374	-9,5	-3,479
2943,88	-9	-3,462
2954,379	-7,5	-3,387
2964,885	-6	-3,238
2975,384	-7	-3,346
2985,895	-8	-3,41
2996,407	-9	-3,458
3006,912	-9	-3,454
3017,418	-8,5	-3,432
3027,911	-8	-3,427
3038,41	-8	-3,425
3048,916	-9	-3,457
3059,409	-8,5	-3,44
3069,915	-9	-3,469
3080,426	-9	-3,482
3090,931	-9,5	-3,491
3101,431	-9	-3,495
3111,966	-9	-3,497
3122,472	-9	-3,498
3132,983	-9	-3,499
3143,476	-9	-3,499
3148,702	2,5	-0,001