File: Cycling_tests/_newS/_1G40/entrada/_1.txt
Time (s)	Load (N)	Displacement (mm)
0	-0,16	-0,035
10,672	0,74	-0,451
21,274	1,22	-0,359
31,875	2,18	-0,239
42,482	2,2	-0,335
53,108	1,12	-0,498
63,727	2,2	-0,358
74,335	2,92	-0,079
84,937	3,14	-0,006
95,555	3,16	-0,015
106,175	3,16	-0,026
116,812	2,86	-0,057
127,42	2,1	-0,138
138,039	-0,16	-0,332
148,658	-1,42	-0,674
159,296	-1,58	-0,776
169,945	-1,1	-0,631
180,589	0,4	-0,342
191,208	-0,42	-0,491
201,863	1,76	-0,198
212,513	2,98	-0,108
223,168	3,42	-0,052
233,835	4,08	-0,021
244,485	4,08	-0,022
255,116	4,22	-0,011
265,766	4,3	-0,008
276,427	4,34	-0,006
287,058	4,38	-0,006
297,726	4,42	-0,002
308,369	4,44	-0,002
319,013	4,48	-0,001
329,668	4,48	-0,001
340,329	4,5	-0,079
350,991	4,52	-0,228
361,622	3,7	-0,477
372,29	1,72	-0,727
382,94	1,8	-0,791
393,588	0,46	-0,903
404,256	-0,62	-1,195
414,917	-0,6	-1,186
425,585	-3,22	-1,564
436,258	-4,14	-1,706
446,907	-4,04	-1,77
457,575	-5,78	-2,152
468,236	-8,66	-2,431
478,885	-9,54	-2,633
489,553	-9,88	-2,691
500,232	-9,54	-2,721
510,93	-8,56	-2,518
521,585	-7,88	-2,368
532,258	-6,92	-2,249
542,926	-5,84	-2,074
553,575	-1,48	-1,33
564,267	1,98	-0,881
574,922	2,88	-0,619
585,571	5,04	-0,176
596,257	5,04	-0,288
606,894	5,12	-0,001
617,556	4,66	-0,331
628,247	1,92	-0,771
638,914	0,12	-1,086
649,582	-2,72	-1,59
660,273	-6,56	-2,242
670,94	-10,06	-2,781
681,62	-14,84	-3,368
692,287	-16,48	-3,456
702,979	-18,54	-3,49
713,67	-18,6	-3,498
724,35	-18,52	-3,5
735,005	-17,5	-3,14
745,672	-16,82	-3,006
756,364	-13,02	-2,636
767,025	-11,42	-2,394
777,686	-9,66	-2,244
788,348	-8,98	-2,12
799,015	-7,22	-1,938
809,677	-5,5	-1,73
820,338	-5,52	-1,686
831,005	-3,78	-1,394
841,673	-0,9	-0,936
852,328	0,4	-0,651
862,984	2,5	-0,296
873,657	3,18	-0,203
884,318	4,64	-0,074
894,98	4,86	-0,046
905,641	5,14	-0,037
916,302	5,02	-0,049
926,97	5,2	-0,048
937,631	5,44	-0,021
948,305	5,56	-0,01
958,954	5,58	-0,007
969,639	5,6	-0,004
980,295	5,6	-0,002
990,962	5,58	-0,072
1001,612	4,68	-0,412
1012,273	3,08	-0,732
1022,952	-0,5	-1,286
1033,614	-3,24	-1,789
1044,293	-4,98	-2,132
1054,949	-7,82	-2,549
1065,605	-11,8	-3,032
1076,253	-13,92	-3,326
1086,897	-17,24	-3,466
1097,558	-17,6	-3,493
1108,226	-17,52	-3,498
1118,905	-17,4	-3,349
1129,56	-13,66	-2,862
1140,216	-9,52	-2,364
1150,871	-6,74	-1,94
1161,538	-3,84	-1,563
1172,206	-2,82	-1,297
1182,861	-1,26	-1,054
1193,511	0,42	-0,804
1204,178	1,44	-0,549
1214,851	3,64	-0,215
1225,519	4,22	-0,111
1236,192	5,34	-0,049
1246,842	5,54	-0,029
1257,497	5,66	-0,021
1268,146	5,8	-0,008
1278,796	5,8	-0,003
1289,457	5,8	-0,002
1300,131	5,8	-0,002
1310,792	5,8	-0,002
1321,441	5,8	-0,001
1332,103	5,78	-0,001
1342,752	5,78	-0,001
1353,419	5,76	0
1364,069	5,76	-0,106
1374,7	5,76	-0,022
1385,368	5,76	-0,012
1396,029	5,78	0
1406,678	5,76	-0,022
1417,37	5,74	-0,28
1428,025	5,74	-0,215
1438,711	5,36	-0,372
1449,348	5,34	-0,3
1460,021	5,34	-0,359
1470,683	5,58	-0,263
1481,344	5,74	-0,316
1492,012	5,12	-0,452
1502,673	3,58	-0,566
1513,328	4,36	-0,581
1523,966	5	-0,467
1534,621	5,06	-0,488
1545,295	5,2	-0,464
1555,956	5,36	-0,391
1566,617	4,44	-0,5
1577,267	5,2	-0,313
1587,928	4,28	-0,545
1598,595	5,14	-0,438
1609,257	4,46	-0,568
1619,9	3,4	-0,762
1630,556	1,86	-0,884
1641,235	0,76	-1,112
1651,902	-0,7	-1,357
1662,54	-0,02	-1,351
1673,207	0	-1,292
1683,881	-0,92	-1,497
1694,548	-1,38	-1,556
1705,191	-0,26	-1,372
1715,859	-0,02	-1,246
1726,502	1,94	-0,917
1737,182	1,66	-0,919
1747,849	2,4	-0,834
1758,522	3,68	-0,646
1769,178	3,4	-0,661
1779,839	3,06	-0,763
1790,483	2,62	-0,765
1801,162	1,28	-1,011
1811,805	2,6	-0,817
1822,461	2,92	-0,767
1833,146	2,62	-0,858
1843,807	0,78	-1,152
1854,451	-0,36	-1,356
1865,1	0,06	-1,336
1875,774	-0,38	-1,413
1886,429	-0,58	-1,38
1897,072	-0,4	-1,35
1907,722	-0,62	-1,462
1918,371	-2	-1,791
1929,021	-2,42	-1,888
1939,682	-3,22	-2,118
1950,331	-3,9	-2,241
1960,993	-4	-2,44
1971,666	-5,52	-2,555
1982,322	-4,84	-2,442
1993,007	-5,3	-2,537
2003,68	-5,42	-2,556
2014,336	-4,9	-2,549
2025,003	-6,46	-2,752
2035,653	-5,8	-2,693
2046,308	-5,54	-2,633
2056,969	-4,84	-2,518
2067,619	-4,34	-2,386
2078,268	-3,26	-2,136
2088,942	-2,86	-2,023
2099,591	-1,22	-1,768
2110,276	-1,7	-1,746
2120,938	-0,18	-1,307
2131,611	1,52	-0,996
2142,284	4,72	-0,451
2152,94	5,58	0
2163,589	5,58	-0,001
2174,257	5,54	-0,014
2184,924	3	-0,225
2195,567	0,26	-1,085
2206,211	-4,42	-2,168
2216,866	-10,68	-3,046
2227,516	-12,16	-3,496
2238,165	-11,38	-3,437
2248,827	-5,94	-2,753
2259,482	-1,26	-1,72
2270,131	2,12	-0,87
2280,787	5,4	0
2291,454	5,44	-0,005
2302,121	5,24	-0,024
2312,789	4,06	-0,119
2323,45	3,2	-0,161
2334,118	3,5	-0,152
2344,774	2,14	-0,4
2355,434	1,64	-0,514
2366,078	0,86	-0,849
2376,745	-0,6	-1,249
2387,424	-1,94	-1,67
2398,062	-2,84	-1,85
2408,717	-2,44	-1,816
2419,379	-2,46	-1,835
2430,058	-1,68	-1,583
2440,713	-2,26	-1,792
2451,369	-2,2	-1,65
2462,036	-0,96	-1,41
2472,692	-1,98	-1,732
2483,347	-3,52	-1,978
2493,996	-3,12	-1,967
2504,67	-1,72	-1,607
2515,319	-0,72	-1,3
2525,974	0,08	-1,093
2536,648	0,2	-1,02
2547,291	-0,14	-1,14
2557,947	-0,28	-1,238
2568,608	-0,78	-1,353
2579,275	-1,48	-1,555
2589,925	-1,44	-1,5
2600,58	-1,2	-1,407
2611,224	-1,02	-1,463
2621,873	-1,04	-1,383
2632,54	-0,38	-1,26
2643,196	-0,28	-1,162
2653,839	-0,14	-1,154
2664,501	-0,52	-1,295
2675,15	-1,06	-1,429
2685,811	-1,98	-1,654
2696,485	-1,94	-1,704
2707,134	-3,54	-2,071
2717,79	-5,36	-2,375
2728,451	-4,82	-2,309
2739,112	-4,1	-2,254
2749,768	-6,3	-2,628
2760,423	-6,84	-2,764
2771,096	-6,48	-2,643
2781,764	-6,24	-2,61
2792,419	-5,18	-2,448
2803,105	-4,92	-2,389
2813,76	-5,6	-2,56
2824,421	-6,04	-2,528
2835,089	-3,82	-2,225
2845,744	-3,32	-2,029
2856,406	-2,1	-1,798
2867,073	-1,6	-1,602
2877,735	-0,92	-1,387
2888,414	-0,22	-1,151
2899,075	0,4	-0,932
2909,725	0,1	-1,028
2920,38	-0,06	-1,008
2931,023	0,26	-1,03
2941,691	0,66	-0,893
2952,37	0,18	-0,93
2963,026	0,92	-0,777
2973,687	1,3	-0,626
2984,348	1,38	-0,592
2995,016	1,24	-0,582
3005,683	1,42	-0,555
3016,35	1,74	-0,345
3027,006	2,48	-0,23
3037,673	2,38	-0,234
3048,329	2,32	-0,273
3059,002	2,5	-0,262
3069,663	3,32	-0,113
3080,319	4,08	-0,068
3090,98	4,64	-0,03
3101,63	4,9	-0,012
3112,291	4,94	-0,006
3122,958	4,94	-0,002
3133,614	4,94	-0,002
3144,275	4,92	0
3154,925	4,9	0
3165,598	4,62	-0,332
3176,265	3,26	-0,524
3186,927	1,28	-0,92
3195,176	4,9	-0,001