File: Cycling_tests/_newS/_1G40/entrada/_2.txt
Time (s)	Load (N)	Displacement (mm)
0	-0,08	-0,027
10,611	1,14	-0,001
21,176	1,28	-0,013
31,736	-0,32	-0,153
42,307	-3,48	-0,748
52,878	-7,6	-1,376
63,444	-13,32	-2,147
74,009	-18,52	-2,725
84,568	-21,96	-3,473
95,14	-21,92	-3,498
105,705	-21,68	-3,486
116,271	-20,88	-3,461
126,854	-19,66	-3,432
137,425	-18,64	-3,38
147,991	-19,2	-3,413
158,562	-19,44	-3,418
169,134	-18,98	-3,421
179,711	-18,16	-3,401
190,282	-18,92	-3,392
200,86	-19,26	-3,414
211,431	-20,28	-3,461
222,015	-20,3	-3,469
232,616	-20,6	-3,488
243,211	-20,66	-3,496
253,795	-20,62	-3,496
264,39	-20,44	-3,499
274,986	-20,42	-3,499
285,581	-20,36	-3,494
296,182	-20,26	-3,22
306,772	-19,64	-3,07
317,379	-17,56	-2,898
327,975	-19,66	-3,088
338,576	-18,1	-2,98
349,177	-18,4	-2,986
359,773	-18,6	-3,055
370,362	-18,8	-3,099
380,994	-18,28	-3,008
391,607	-14,1	-2,597
402,208	-12,16	-2,337
412,816	-9,76	-2,026
423,435	-6,98	-1,618
434,048	-3,52	-1,105
444,674	-1,06	-0,497
455,275	0,34	-0,175
465,913	2	-0,038
476,538	2,12	-0,049
487,157	2,18	-0,041
497,783	2,26	-0,03
508,378	1,76	-0,085
518,998	0,56	-0,208
529,611	1,1	-0,122
540,224	2,5	-0,012
550,808	2,58	-0,003
561,415	2,56	-0,001
572,041	-0,3	-0,771
582,654	-2,28	-1,169
593,273	-3,84	-1,515
603,911	-6,74	-2,11
614,536	-9,26	-2,516
625,162	-10,14	-2,801
635,781	-9,32	-2,662
646,43	-8,66	-2,54
657,092	-10,22	-2,669
667,735	-11,9	-2,964
678,367	-12,24	-3,156
689,004	-12,62	-3,042
699,647	-13,68	-3,163
710,291	-15,1	-3,308
720,928	-17,8	-3,456
731,559	-18,66	-3,492
742,185	-18,66	-3,498
752,813	-18,62	-3,498
763,436	-18,58	-3,499
774,067	-18,54	-3,482
784,674	-18,54	-3,499
795,312	-18,5	-3,497
805,967	-18,46	-3,496
816,605	-18,22	-3,485
827,26	-17,9	-3,476
837,879	-18,2	-3,485
848,511	-18,32	-3,493
859,142	-18,32	-3,494
869,786	-18,32	-3,499
880,423	-18,28	-3,5
891,048	-18,26	-3,486
901,668	-17,62	-3,07
912,299	-11,32	-2,444
922,937	-7,46	-1,889
933,568	-4,92	-1,537
944,217	-3,74	-1,265
954,843	-2,32	-0,923
965,486	-1,14	-0,67
976,123	-0,92	-0,544
986,767	1,12	-0,174
997,386	1,34	-0,156
1008,006	1,72	-0,1
1018,637	1,98	-0,06
1029,274	2,6	-0,023
1039,918	2,54	-0,029
1050,537	2,66	-0,02
1061,17	2,6	-0,024
1071,782	2,52	-0,039
1082,401	2,6	-0,028
1093,015	2,74	-0,013
1103,64	2,7	-0,018
1114,284	2,72	-0,012
1124,933	2,82	-0,008
1135,547	2,74	-0,014
1146,172	2,56	-0,028
1156,803	2,8	-0,012
1167,447	2,86	-0,002
1178,078	2,86	-0,001
1188,703	2,86	-0,022
1199,329	2,64	-0,34
1209,984	1,8	-0,562
1220,628	-0,96	-0,98
1231,271	-1,94	-1,242
1241,908	-1,76	-1,226
1252,558	-3,12	-1,62
1263,231	-5,04	-2,17
1273,886	-6,24	-2,477
1284,53	-7,68	-2,787
1295,167	-8,7	-2,952
1305,799	-8,3	-3,063
1316,43	-9,08	-3,065
1327,049	-9,62	-3,058
1337,675	-10,62	-3,242
1348,318	-11,28	-3,325
1358,968	-11,22	-3,317
1369,617	-11,78	-3,412
1380,26	-13,42	-3,451
1390,916	-13,58	-3,475
1401,559	-13,72	-3,483
1412,197	-13,68	-3,484
1422,834	-13,6	-3,488
1433,453	-13,5	-3,487
1444,079	-13,56	-3,49
1454,71	-13,56	-3,494
1465,342	-13,5	-3,494
1475,973	-13,34	-3,49
1486,604	-13,24	-3,484
1497,254	-13,16	-3,479
1507,885	-12,44	-3,453
1518,516	-12,42	-3,454
1529,136	-11,62	-3,398
1539,767	-11,24	-3,412
1550,387	-11,02	-3,383
1561,036	-10,24	-3,32
1571,679	-7,78	-3,104
1582,305	-4,08	-2,298
1592,93	-3,4	-2,041
1603,55	-2,3	-1,604
1614,175	-1,54	-1,372
1624,794	-1,6	-1,393
1635,414	-1,2	-1,19
1646,051	-1	-1,174
1656,677	-2	-1,554
1667,308	-2,44	-1,693
1677,951	-2,92	-1,935
1688,571	-3,32	-2,098
1699,22	-5,04	-2,519
1709,882	-6,64	-2,951
1720,525	-6,28	-3,011
1731,15	-6,84	-3,174
1741,788	-8,5	-3,364
1752,437	-8,5	-3,327
1763,087	-9,32	-3,408
1773,724	-10,04	-3,469
1784,367	-10,22	-3,493
1795,011	-10,12	-3,498
1805,654	-10,04	-3,499
1816,291	-9,94	-3,294
1826,917	-9,9	-3,182
1837,566	-6,9	-2,807
1848,228	-4,54	-2,321
1858,853	-3,34	-2,186
1869,508	-2,3	-1,932
1880,134	-1,78	-1,753
1890,777	-1,12	-1,496
1901,427	-0,7	-1,374
1912,064	0	-0,902
1922,695	0,26	-0,8
1933,315	0,36	-0,737
1943,946	0,8	-0,487
1954,584	1,3	-0,276
1965,209	1,76	-0,143
1975,84	2,08	-0,078
1986,472	2,44	-0,054
1997,097	2,02	-0,092
2007,711	1,26	-0,217
2018,348	1,04	-0,338
2028,979	1,22	-0,3
2039,623	1	-0,388
2050,272	0,94	-0,376
2060,897	0,7	-0,576
2071,535	0,22	-0,88
2082,196	-0,18	-1,064
2092,828	-0,6	-1,26
2103,465	-0,98	-1,485
2114,108	-1,08	-1,535
2124,734	-1,32	-1,735
2135,359	-1,6	-1,834
2146,003	-2,34	-2,097
2156,628	-3,52	-2,423
2167,259	-5,92	-2,843
2177,897	-6,04	-2,898
2188,522	-6,38	-2,927
2199,166	-7,04	-3,015
2209,815	-7,78	-3,202
2220,452	-7,16	-3,124
2231,102	-8	-3,406
2241,751	-7,98	-3,5
2252,383	-7,98	-3,499
2263,02	-7,98	-3,499
2273,639	-7,96	-3,498
2284,277	-7,92	-3,496
2294,914	-7,88	-3,492
2305,564	-7,88	-3,493
2316,201	-7,82	-3,494
2326,82	-7,78	-3,49
2337,464	-7,72	-3,488
2348,107	-7,68	-3,491
2358,744	-7,68	-3,493
2369,382	-7,56	-3,485
2380,007	-7,42	-3,477
2390,633	-7,4	-3,479
2401,27	-7,18	-3,464
2411,883	-7,1	-3,454
2422,509	-6,8	-3,449
2433,122	-6,32	-3,413
2443,766	-6,96	-3,457
2454,391	-6,74	-3,428
2465,034	-6,42	-3,434
2475,672	-6,78	-3,44
2486,297	-5,94	-3,38
2496,905	-4,54	-3,193
2507,548	-4,38	-3,152
2518,191	-4,86	-3,269
2528,847	-6,02	-3,402
2539,472	-6,22	-3,444
2550,116	-6,8	-3,471
2560,747	-6,02	-3,461
2571,384	-6,92	-3,481
2582,016	-6,68	-3,466
2592,653	-5,9	-3,432
2603,297	-6,36	-3,456
2613,94	-6,74	-3,48
2624,577	-6,88	-3,493
2635,233	-6,88	-3,499
2645,888	-6,82	-3,412
2656,531	-6,8	-3,5
2667,163	-6,76	-3,486
2677,812	-6,76	-3,499
2688,426	-6,72	-3,499
2699,075	-6,7	-3,498
2709,7	-6,66	-3,499
2720,332	-6,62	-3,499
2730,945	-6,6	-3,393
2741,565	-6,56	-3,251
2752,19	-6,54	-3,21
2762,827	-6,54	-3,238
2773,447	-6,5	-3,316
2784,084	-6,48	-3,325
2794,698	-6,18	-3,222
2805,347	-5,62	-3,065
2815,972	-3,82	-2,828
2826,628	-2,42	-2,494
2837,259	-2,42	-2,441
2847,885	-4,4	-2,832
2858,534	-3,88	-2,784
2869,177	-2,78	-2,47
2879,797	-4,48	-2,899
2890,44	-5,48	-3,058
2901,059	-6,26	-3,106
2911,703	-5,34	-3,008
2922,346	-5,6	-3,155
2932,978	-6,22	-3,5
2943,627	-6,2	-3,499
2954,246	-6,2	-3,498
2964,884	-6,18	-3,499
2975,521	-6,16	-3,497
2986,141	-6,16	-3,495
2996,772	-5,94	-3,479
3007,415	-6	-3,48
3018,065	-6,04	-3,488
3028,684	-5,96	-3,481
3039,31	-5,7	-3,464
3049,935	-5,26	-3,412
3060,578	-5,14	-3,412
3071,204	-4,36	-3,368
3081,835	-3,84	-3,255
3092,461	-3,24	-3,102
3103,098	-2,6	-2,862
3113,717	-2,32	-2,745
3124,367	-1,94	-2,595
3134,998	-1,72	-2,415
3145,624	-1,84	-2,519
3156,243	-1,76	-2,497
3166,886	-1,94	-2,557
3177,512	-1,5	-2,343
3185,587	2,46	0