File: Cycling_tests/_newS/_1G40/entrada/_3.txt
Time (s)	Load (N)	Displacement (mm)
0	-0,08	-0,031
10,805	1,52	-0,155
21,569	1,94	-0,009
32,332	2,26	0
43,113	2,48	-0,102
53,901	2,64	-0,221
64,658	2,82	-0,027
75,434	2,96	-0,003
86,203	3,1	-0,001
96,978	3,22	-0,001
107,796	3,3	-0,001
118,577	3,34	-0,091
129,359	3,42	-0,184
140,146	3,46	-0,164
150,933	3,56	-0,297
161,727	1,6	-0,578
172,514	0,1	-0,838
183,295	1,42	-0,744
194,089	-0,42	-0,916
204,876	-1,38	-1,133
215,664	-2,56	-1,272
226,451	-3,66	-1,489
237,22	-4	-1,536
248,008	-4,2	-1,642
258,807	-4,4	-1,722
269,594	-5,82	-1,816
280,394	-7,38	-2,112
291,193	-7,72	-2,143
301,999	-8,74	-2,354
312,798	-8,66	-2,35
323,603	-9,6	-2,513
334,397	-8,92	-2,404
345,202	-8,94	-2,408
355,996	-10,46	-2,623
366,801	-11,02	-2,745
377,606	-13,88	-3,004
388,412	-14,3	-3,098
399,217	-17,2	-3,373
410,028	-19,32	-3,445
420,84	-19,34	-3,47
431,645	-20,08	-3,488
442,457	-20,12	-3,494
453,268	-20,1	-3,497
464,073	-20,04	-3,498
474,909	-19,98	-3,499
485,726	-19,9	-3,388
496,537	-19,84	-3,193
507,343	-16,94	-2,975
518,166	-15,6	-2,71
528,966	-12,62	-2,491
539,789	-10,2	-2,154
550,612	-8,22	-1,92
561,43	-5,58	-1,526
572,253	-4,62	-1,336
583,077	-2,04	-0,971
593,894	0,76	-0,535
604,711	1,9	-0,311
615,529	2,62	-0,142
626,334	3,32	-0,125
637,145	4,02	-0,068
647,981	4,38	-0,04
658,804	4	-0,07
669,628	4,56	-0,034
680,463	4,76	-0,022
691,274	4,82	-0,017
702,11	4,76	-0,022
712,921	4,18	-0,06
723,732	3,92	-0,076
734,544	4,62	-0,042
745,367	4,6	-0,04
756,179	4,36	-0,046
767,02	4,3	-0,052
777,843	3,14	-0,179
788,673	2,3	-0,229
799,496	2,1	-0,229
810,326	2,26	-0,225
821,167	2,6	-0,188
831,996	3,84	-0,087
842,82	4,64	-0,033
853,643	4,8	-0,036
864,448	4,9	-0,023
875,302	5,1	-0,005
886,155	5,12	-0,003
896,973	5,12	-0,005
907,814	5,14	-0,005
918,661	5,14	-0,003
929,479	5,14	-0,002
940,314	5,12	-0,001
951,149	5,08	-0,071
961,991	4,86	-0,285
972,814	4,42	-0,417
983,644	4,44	-0,457
994,455	4,54	-0,352
1005,284	5,12	-0,212
1016,114	5,12	-0,192
1026,925	4,92	-0,244
1037,755	5,1	-0,269
1048,584	4,42	-0,448
1059,407	4,44	-0,36
1070,231	4,92	-0,337
1081,036	5,18	-0,082
1091,841	5,2	0
1102,665	5,24	-0,001
1113,506	5,24	-0,001
1124,312	5,26	-0,002
1135,129	5,28	-0,003
1145,97	5,28	-0,006
1156,83	5,28	-0,007
1167,665	5,3	-0,005
1178,494	5,24	-0,011
1189,33	5,2	-0,016
1200,147	5,1	-0,022
1210,971	5,04	-0,025
1221,8	5,08	-0,028
1232,641	5,24	-0,014
1243,459	5,3	-0,005
1254,276	5,28	-0,002
1265,094	5,26	-0,001
1275,911	5,24	0
1286,728	5,22	-0,07
1297,564	4,96	-0,324
1308,381	2,58	-0,788
1319,198	-0,1	-1,23
1330,022	-2,44	-1,739
1340,839	-4,7	-2,25
1351,645	-6,74	-2,599
1362,474	-9,1	-2,985
1373,285	-12,84	-3,394
1384,121	-13,88	-3,469
1394,968	-14,2	-3,484
1405,797	-14,26	-3,496
1416,615	-14,2	-3,498
1427,45	-14,1	-3,499
1438,292	-13,9	-3,462
1449,121	-11,78	-3,037
1459,938	-10,6	-2,894
1470,78	-6,48	-2,32
1481,609	-4,56	-1,941
1492,439	-3,86	-1,876
1503,268	-3,22	-1,704
1514,121	-1,26	-1,299
1524,933	-1,5	-1,309
1535,78	-0,14	-1,015
1546,603	-0,38	-1,048
1557,439	-0,08	-1,044
1568,262	-0,02	-0,99
1579,092	-0,26	-1,11
1589,915	-0,24	-1,065
1600,756	0,3	-0,945
1611,562	-0,1	-1,031
1622,379	-0,24	-1,051
1633,196	-0,56	-1,137
1644,02	-0,9	-1,26
1654,849	-0,56	-1,201
1665,685	-0,72	-1,232
1676,496	-1,44	-1,341
1687,325	-0,96	-1,27
1698,149	-0,86	-1,288
1708,978	-0,76	-1,2
1719,802	-0,96	-1,298
1730,631	-1,86	-1,477
1741,454	-2,52	-1,69
1752,266	-2,22	-1,641
1763,077	-3,5	-1,749
1773,912	-2,96	-1,798
1784,736	-4,18	-2,018
1795,576	-4,62	-2,158
1806,389	-7,3	-2,528
1817,206	-8,42	-2,644
1828,053	-6,58	-2,414
1838,901	-4,68	-2,195
1849,718	-4,88	-2,237
1860,548	-5,58	-2,289
1871,395	-4,68	-2,175
1882,212	-4,2	-2,138
1893,066	-3,6	-1,931
1903,913	-2,04	-1,652
1914,73	-2,38	-1,732
1925,572	-2,32	-1,686
1936,401	-2,3	-1,684
1947,225	-1,66	-1,463
1958,048	-0,22	-1,155
1968,865	-0,52	-1,225
1979,683	-0,16	-1,006
1990,5	0,06	-0,969
2001,317	-0,16	-1,011
2012,147	1,32	-0,625
2022,958	1,38	-0,518
2033,8	2,62	-0,222
2044,605	3,36	-0,15
2055,428	3,76	-0,094
2066,251	4,68	-0,03
2077,063	4,66	-0,031
2087,893	4,82	-0,018
2098,722	4,92	-0,009
2109,533	4,9	-0,007
2120,357	4,9	-0,006
2131,198	4,9	-0,003
2142,009	4,9	-0,004
2152,839	4,88	-0,003
2163,662	4,88	-0,003
2174,486	4,88	-0,001
2185,303	4,86	0
2196,114	4,84	-0,16
2206,944	3,54	-0,582
2217,767	1,12	-0,977
2228,608	-0,84	-1,56
2239,432	-2,52	-2,063
2250,273	-4,1	-2,476
2261,097	-5,14	-2,91
2271,926	-8,38	-3,318
2282,773	-9,86	-3,444
2293,591	-10,54	-3,48
2304,426	-10,68	-3,497
2315,238	-10,6	-3,498
2326,079	-10,54	-3,499
2336,92	-10,46	-3,496
2347,738	-10,38	-3,35
2358,567	-7,76	-2,936
2369,408	-7,04	-2,769
2380,232	-6,12	-2,631
2391,061	-5,68	-2,428
2401,891	-4,48	-2,294
2412,708	-4	-2,254
2423,519	-4,38	-2,354
2434,337	-4,06	-2,321
2445,172	-4,24	-2,274
2455,989	-4,02	-2,209
2466,831	-3,66	-2,154
2477,654	-3,04	-2,102
2488,49	-2,76	-1,959
2499,319	-2,46	-1,94
2510,136	-3,1	-2,068
2520,96	-2,74	-1,974
2531,801	-2,36	-1,87
2542,637	-2,18	-1,854
2553,46	-1,6	-1,668
2564,283	-1,48	-1,548
2575,083	-1,78	-1,619
2585,918	-1,6	-1,638
2596,741	-1,62	-1,644
2607,577	-1,5	-1,629
2618,412	-1,74	-1,73
2629,23	-2,42	-1,856
2640,065	-2,06	-1,798
2650,906	-2,06	-1,811
2661,718	-2,48	-1,884
2672,559	-1,38	-1,54
2683,371	-1,6	-1,674
2694,194	-1,2	-1,516
2705,011	-1,06	-1,49
2715,829	-0,82	-1,346
2726,664	-0,34	-1,192
2737,499	0,38	-0,925
2748,311	0,28	-0,91
2759,128	0,52	-0,828
2769,934	0,54	-0,804
2780,763	1,02	-0,657
2791,58	1,7	-0,28
2802,416	2,44	-0,183
2813,239	2,92	-0,124
2824,068	4,08	-0,032
2834,88	4,28	-0,021
2845,715	4,3	-0,02
2856,539	4,42	-0,008
2867,344	4,44	-0,006
2878,167	4,44	-0,004
2888,979	4,42	-0,004
2899,808	4,44	-0,003
2910,644	4,44	-0,002
2921,497	4,42	-0,001
2932,332	4,38	0
2943,144	4,38	0
2953,967	4,38	-0,004
2964,784	3,96	-0,228
2975,614	3,64	-0,493
2986,425	2,04	-0,704
2997,249	2,12	-0,792
3008,078	1,14	-0,948
3018,889	0,26	-1,169
3029,695	0,78	-1,014
3040,524	0,08	-1,196
3051,335	-0,14	-1,342
3062,141	-0,24	-1,42
3072,97	-0,62	-1,646
3083,8	-1,44	-1,909
3094,629	-1,42	-1,952
3105,452	-1,66	-2,047
3116,27	-2,02	-2,272
3127,111	-2,14	-2,32
3137,935	-1,64	-2,054
3148,752	-1,5	-1,971
3159,581	-1,06	-1,822
3170,399	-0,96	-1,732
3181,216	-0,7	-1,626
3192,051	-1,04	-1,728
3202,851	-1,02	-1,733
3213,668	-0,78	-1,702
3224,492	-0,78	-1,706
3235,309	-0,88	-1,727
3239,269	4,28	0