File: Cycling_tests/_newS/_1G40/entrada/_4.txt
Time (s)	Load (N)	Displacement (mm)
0	-0,1	-0,036
10,751	-1,16	-0,775
21,424	-1,18	-0,774
32,109	-0,86	-0,816
42,789	-2,16	-0,998
53,468	-4,12	-1,302
64,166	-4,12	-1,315
74,863	-4,72	-1,459
85,548	-4,62	-1,496
96,234	-4,8	-1,474
106,919	-4,14	-1,416
117,623	-5,62	-1,749
128,32	-7,08	-1,994
139,005	-9,38	-2,504
149,721	-13,66	-2,989
160,443	-17,86	-3,396
171,133	-20,22	-3,483
181,855	-20,26	-3,498
192,576	-20,08	-3,5
203,292	-19,94	-3,354
214,001	-19,82	-3,272
224,74	-15,78	-2,754
235,438	-12,26	-2,374
246,165	-8,26	-1,644
256,887	-4,98	-1,433
267,602	-3,44	-1,262
278,317	-0,86	-0,762
289,039	0,84	-0,384
299,736	2,3	-0,154
310,469	3,68	-0,045
321,203	4,18	-0,009
331,918	4,18	-0,001
342,658	3,92	-0,302
353,373	0,34	-0,804
364,082	-0,84	-1,025
374,84	-2,86	-1,454
385,573	-7,48	-2,31
396,289	-8,94	-2,672
407,004	-13,7	-3,241
417,737	-17,8	-3,45
428,441	-18,36	-3,485
439,168	-18,5	-3,497
449,907	-18,38	-3,499
460,647	-18,26	-3,306
471,38	-13,98	-2,71
482,114	-8,2	-2,099
492,847	-5,82	-1,779
503,568	-4,46	-1,53
514,29	-1,22	-0,925
525,023	0,74	-0,558
535,781	2,8	-0,159
546,52	4,54	-0,018
557,259	4,62	-0,002
568,025	4,58	-0,273
578,792	-0,36	-1,062
589,532	-4,52	-1,926
600,253	-7,76	-2,489
610,974	-7,96	-2,589
621,702	-11,04	-2,926
632,447	-11,14	-3,013
643,204	-13,26	-3,226
653,95	-14,44	-3,428
664,683	-17,02	-3,471
675,441	-17,32	-3,48
686,174	-17,52	-3,492
696,937	-17,48	-3,496
707,671	-17,46	-3,497
718,404	-17,44	-3,498
729,143	-17,36	-3,499
739,877	-17,34	-3,499
750,622	-17,32	-3,499
761,356	-17,32	-3,497
772,089	-17,28	-3,499
782,816	-17,28	-3,498
793,544	-17,26	-3,498
804,277	-17,2	-3,499
815,023	-17,1	-3,456
825,75	-13,68	-2,778
836,483	-11,32	-2,608
847,217	-8,64	-2,245
857,962	-5,24	-1,872
868,714	-5,54	-1,77
879,459	-5,5	-1,789
890,192	-4,54	-1,693
900,914	-7,3	-2,12
911,629	-6,84	-2,029
922,344	-13,7	-2,869
933,096	-16,44	-3,222
943,853	-16,84	-3,5
954,593	-16,84	-3,499
965,35	-16,76	-3,401
976,071	-16,74	-3,395
986,811	-14,26	-2,893
997,568	-12,52	-2,75
1008,29	-15,4	-3,04
1019,035	-11,52	-2,664
1029,75	-16,52	-3,446
1040,49	-15,8	-3,162
1051,223	-16,26	-2,979
1061,981	-13,42	-2,868
1072,714	-13,2	-2,886
1083,435	-14,7	-2,94
1094,169	-12,54	-2,818
1104,896	-10,96	-2,604
1115,629	-9,14	-2,437
1126,369	-8,6	-2,396
1137,12	-6,22	-2,035
1147,86	-4,1	-1,616
1158,581	-1,18	-1,059
1169,326	1,22	-0,548
1180,078	0,26	-0,754
1190,805	0	-0,88
1201,539	0,64	-0,756
1212,278	1,22	-0,604
1223,005	2,6	-0,256
1233,757	4,3	-0,09
1244,49	4,2	-0,085
1255,211	1,2	-0,509
1265,957	-1,8	-1,304
1276,684	-5,38	-1,992
1287,418	-14,96	-3,401
1298,169	-15,04	-3,496
1308,896	-13,44	-3,414
1319,636	-9,7	-3,078
1330,357	-4,58	-2,211
1341,085	-2	-1,665
1351,83	-0,84	-1,306
1362,563	-0,94	-1,353
1373,291	1,2	-0,829
1384,012	2,22	-0,68
1394,751	3,12	-0,551
1405,491	3,68	-0,479
1416,212	4,2	-0,419
1426,97	3,54	-0,535
1437,709	3,94	-0,512
1448,454	3,98	-0,541
1459,194	4,64	-0,389
1469,921	5,14	-0,172
1480,655	5,14	-0,18
1491,394	5,08	-0,273
1502,127	5,14	0
1512,861	5,18	-0,001
1523,588	5,2	-0,004
1534,315	5,18	-0,01
1545,043	4,98	-0,031
1555,77	3,92	-0,101
1566,498	2,98	-0,291
1577,243	2,74	-0,285
1587,988	2,94	-0,248
1598,716	2,7	-0,343
1609,449	1,6	-0,555
1620,189	1,62	-0,61
1630,916	1,62	-0,644
1641,66	1,6	-0,595
1652,395	1,6	-0,669
1663,134	1,02	-0,846
1673,892	1,24	-0,757
1684,637	2,04	-0,505
1695,37	2,52	-0,362
1706,104	2,32	-0,388
1716,861	2,48	-0,338
1727,582	1,4	-0,535
1738,316	1,66	-0,63
1749,055	1,6	-0,611
1759,789	1,18	-0,76
1770,522	1,1	-0,764
1781,255	1,34	-0,721
1791,995	0,86	-0,861
1802,71	0,72	-0,967
1813,426	0,22	-1,14
1824,177	-0,2	-1,284
1834,91	-0,56	-1,412
1845,656	-1,58	-1,622
1856,395	-1,28	-1,598
1867,134	-1,08	-1,572
1877,862	0,06	-1,182
1888,589	1,02	-0,791
1899,311	1,06	-0,805
1910,056	2,7	-0,272
1920,807	2,98	-0,198
1931,529	2,34	-0,284
1942,262	2,64	-0,264
1952,99	2,36	-0,311
1963,741	2,52	-0,317
1974,474	2,4	-0,326
1985,214	2,86	-0,226
1995,947	3,06	-0,155
2006,693	3,72	-0,12
2017,42	3,34	-0,152
2028,147	3,1	-0,218
2038,899	2,94	-0,191
2049,644	2,6	-0,248
2060,377	2,32	-0,279
2071,123	2,56	-0,206
2081,85	2,68	-0,24
2092,584	2,52	-0,229
2103,3	2,12	-0,362
2114,014	1,82	-0,494
2124,736	1,3	-0,647
2135,475	1,2	-0,735
2146,238	1,46	-0,538
2156,978	2,4	-0,311
2167,711	2,92	-0,157
2178,445	3,02	-0,175
2189,178	2,62	-0,27
2199,923	3,6	-0,111
2210,651	3,92	-0,076
2221,384	3,4	-0,1
2232,118	3,74	-0,086
2242,845	3,92	-0,069
2253,572	3,74	-0,097
2264,306	3,66	-0,085
2275,039	3,6	-0,102
2285,755	3,16	-0,156
2296,5	2,28	-0,292
2307,227	1,58	-0,501
2317,937	1,12	-0,685
2328,682	1,02	-0,71
2339,415	1,24	-0,635
2350,155	1,48	-0,536
2360,9	1,5	-0,497
2371,634	1,58	-0,502
2382,373	1,42	-0,573
2393,112	0,68	-0,872
2403,87	0,46	-1,007
2414,609	-0,06	-1,295
2425,343	-0,78	-1,673
2436,058	-1,92	-2,007
2446,809	-2,6	-2,25
2457,525	-4,9	-2,772
2468,24	-7,34	-3,1
2478,968	-8,7	-3,5
2489,701	-8,7	-3,499
2500,452	-8,7	-3,497
2511,186	-8,48	-3,481
2521,907	-6	-3,328
2532,634	-4,28	-2,93
2543,368	-2,5	-2,42
2554,083	-1,5	-1,927
2564,817	-0,7	-1,451
2575,556	-0,1	-1,223
2586,277	2,56	-0,616
2597,005	4,44	0
2607,738	4,44	-0,001
2618,466	4,44	-0,003
2629,193	4,32	-0,016
2639,92	3,8	-0,051
2650,654	3,7	-0,065
2661,399	3,18	-0,097
2672,138	1,88	-0,23
2682,878	1,08	-0,558
2693,593	0,1	-1,159
2704,327	-0,32	-1,455
2715,036	-1,22	-1,852
2725,763	-2,68	-2,398
2736,491	-5,94	-2,945
2747,2	-8,12	-3,253
2757,916	-8,12	-3,5
2768,661	-8,1	-3,492
2779,388	-8,12	-3,499
2790,11	-8,1	-3,497
2800,855	-8,1	-3,497
2811,583	-8,06	-3,493
2822,322	-7,9	-3,484
2833,073	-7,56	-3,477
2843,801	-7,48	-3,458
2854,558	-7,7	-3,472
2865,279	-6,9	-3,436
2876,001	-5,68	-3,364
2886,74	-5,78	-3,37
2897,468	-4,78	-3,289
2908,177	-3,12	-2,828
2918,91	-2,74	-2,658
2929,638	-2,52	-2,634
2940,371	-2,46	-2,56
2951,117	-3,14	-2,849
2961,856	-3,28	-2,975
2972,577	-3,44	-3,027
2983,311	-3,74	-3,054
2994,032	-4,68	-3,265
3004,771	-4,44	-3,296
3015,493	-3,98	-3,124
3026,22	-3,34	-3
3036,954	-3,58	-3,09
3047,675	-3,44	-3,052
3058,408	-3,98	-3,163
3069,142	-5,02	-3,307
3079,869	-5,4	-3,36
3090,597	-5,38	-3,408
3101,33	-7,06	-3,468
3112,057	-6,46	-3,441
3122,785	-5,92	-3,423
3133,506	-5,9	-3,418
3144,239	-6,38	-3,434
3154,985	-6,28	-3,433
3165,718	-6,82	-3,46
3176,452	-6,8	-3,466
3187,173	-6,74	-3,464
3197,912	-7,12	-3,479
3208,622	-7,08	-3,478
3218,545	3,86	0