File: ensaios_Ciclicos/_40perc/_3gap/entrada/_2.txt
Time (s)	Load (N)	Displacement (mm)
0	0	-0,036
10,559	1	-0,055
21,022	1	-0,002
31,503	1	-0,013
41,973	0	-0,126
52,442	-2	-0,65
62,93	-6,5	-1,417
73,411	-9,5	-1,788
83,886	-14,5	-2,457
94,38	-21	-3,283
104,849	-21	-3,499
115,337	-21	-3,493
125,824	-18,5	-3,391
136,323	-12	-2,71
146,836	-8,5	-2,205
157,316	-5,5	-1,665
167,822	-3,5	-1,212
178,297	0	-0,622
188,808	1,5	-0,32
199,32	2	-0,001
209,813	2	-0,004
220,301	2	-0,009
230,83	2	-0,009
241,347	2	-0,013
251,865	1,5	-0,022
262,394	1,5	-0,048
272,9	1	-0,089
283,398	1,5	-0,082
293,928	1,5	-0,072
304,434	0	-0,174
314,951	0	-0,366
325,451	-0,5	-0,578
335,986	-0,5	-0,553
346,509	-1,5	-0,864
357,027	-2,5	-0,997
367,568	-2	-0,967
378,074	-3	-1,164
388,597	-6,5	-1,754
399,102	-16	-2,883
409,596	-18,5	-3,498
420,137	-18	-3,496
430,649	-17,5	-3,463
441,178	-17,5	-3,45
451,689	-14,5	-3,328
462,201	-15	-3,359
472,718	-16,5	-3,421
483,224	-15	-3,342
493,747	-13,5	-3,261
504,264	-13	-3,214
514,794	-13,5	-3,207
525,305	-15	-3,382
535,853	-17	-3,449
546,376	-16,5	-3,444
556,881	-17	-3,473
567,411	-17,5	-3,491
577,934	-17,5	-3,495
588,452	-17,5	-3,493
598,945	-17,5	-3,49
609,45	-17	-3,476
619,98	-17	-3,472
630,491	-17	-3,481
641,002	-17	-3,477
651,55	-17	-3,464
662,079	-17	-3,474
672,609	-17	-3,484
683,138	-17	-3,475
693,661	-15,5	-3,46
704,167	-15	-3,429
714,684	-13,5	-3,426
725,208	-16	-3,448
735,713	-16,5	-3,474
746,224	-17	-3,489
756,736	-17	-3,496
767,253	-17	-3,497
777,777	-16,5	-3,5
788,294	-14,5	-3,029
798,805	-13,5	-2,83
809,329	-10,5	-2,46
819,834	-7	-2,068
830,358	-5,5	-1,875
840,869	-6	-1,874
851,386	-7	-2,003
861,904	-4,5	-1,673
872,409	-3	-1,383
882,915	-2,5	-1,193
893,42	-1	-0,844
903,937	0	-0,307
914,449	1,5	-0,078
924,96	2	-0,029
935,46	2,5	-0,01
945,965	2	-0,004
956,464	2	-0,002
966,976	2	0
977,487	1,5	-0,346
987,993	0	-0,723
998,492	-0,5	-0,818
1009,003	0	-0,692
1019,503	0	-0,692
1030,026	-2,5	-1,376
1040,532	-4,5	-2,027
1051,043	-6	-2,417
1061,536	-9	-2,812
1072,054	-8	-2,764
1082,559	-7,5	-2,607
1093,065	-6	-2,329
1103,57	-5	-2,126
1114,069	-4	-1,987
1124,575	-3,5	-1,678
1135,098	-4	-1,856
1145,61	-3,5	-1,746
1156,121	-4,5	-1,93
1166,626	-5,5	-2,266
1177,126	-5,5	-2,39
1187,637	-9	-2,8
1198,155	-14	-3,394
1208,66	-15	-3,48
1219,171	-16	-3,498
1229,683	-15,5	-3,222
1240,17	-10,5	-2,689
1250,664	-7,5	-2,199
1261,175	-5	-1,863
1271,68	-3	-1,418
1282,192	-1,5	-1,028
1292,685	-0,5	-0,616
1303,191	0,5	-0,159
1313,696	1,5	-0,046
1324,201	2,5	-0,021
1334,719	2,5	-0,009
1345,218	2,5	-0,016
1355,73	2,5	-0,005
1366,235	2,5	-0,008
1376,74	2,5	-0,016
1387,246	2,5	-0,016
1397,745	2,5	-0,004
1408,257	2,5	-0,002
1418,768	2,5	-0,001
1429,273	2,5	0
1439,779	2,5	-0,032
1450,296	2	-0,298
1460,784	2	-0,376
1471,283	0,5	-0,6
1481,782	0	-0,776
1492,288	-1	-0,998
1502,793	-2	-1,161
1513,305	-2	-1,31
1523,81	-3	-1,649
1534,303	-3,5	-1,82
1544,797	-4	-1,993
1555,314	-5,5	-2,348
1565,82	-7,5	-2,755
1576,325	-9,5	-3,003
1586,825	-13,5	-3,384
1597,324	-15	-3,451
1607,829	-15	-3,479
1618,329	-15	-3,486
1628,84	-15	-3,494
1639,351	-15	-3,496
1649,857	-15	-3,498
1660,35	-15	-3,498
1670,862	-15	-3,499
1681,349	-15	-3,499
1691,854	-15	-3,5
1702,36	-15	-3,319
1712,865	-14,5	-3,188
1723,359	-15	-3,262
1733,87	-15	-3,498
1744,369	-15	-3,496
1754,875	-15	-3,488
1765,386	-14,5	-3,466
1775,886	-11	-3,288
1786,391	-10	-3,181
1796,896	-10	-3,157
1807,402	-10	-3,171
1817,913	-7,5	-2,732
1828,413	-5,5	-2,45
1838,912	-4,5	-2,237
1849,411	-3,5	-2,046
1859,917	-3,5	-1,964
1870,41	-4	-2,046
1880,892	-4	-2,137
1891,397	-4,5	-2,241
1901,89	-5,5	-2,501
1912,396	-5,5	-2,506
1922,889	-5	-2,3
1933,389	-3,5	-1,954
1943,888	-3	-1,811
1954,387	-2	-1,386
1964,887	-2,5	-1,578
1975,392	-3	-1,869
1985,898	-6	-2,6
1996,397	-8,5	-2,94
2006,914	-9,5	-3,17
2017,414	-6,5	-2,743
2027,925	-6	-2,58
2038,425	-4,5	-2,298
2048,924	-5,5	-2,51
2059,423	-3,5	-1,979
2069,923	-3	-1,707
2080,428	-2	-1,436
2090,922	-1,5	-1,207
2101,415	-1	-0,933
2111,914	-1	-0,854
2122,408	0	-0,797
2132,907	-0,5	-0,83
2143,413	-1	-0,917
2153,918	-1,5	-1,17
2164,399	-1,5	-1,155
2174,893	-1,5	-1,338
2185,398	-2,5	-1,597
2195,904	-3	-1,897
2206,409	-5	-2,386
2216,902	-7,5	-2,945
2227,408	-10,5	-3,292
2237,925	-12	-3,392
2248,419	-12	-3,398
2258,924	-12,5	-3,431
2269,429	-12,5	-3,433
2279,923	-13	-3,448
2290,422	-13,5	-3,492
2300,928	-14	-3,496
2311,427	-13,5	-3,499
2321,926	-13,5	-3,198
2332,414	-10	-2,779
2342,913	-5,5	-2,235
2353,413	-3	-1,763
2363,918	-1,5	-1,291
2374,423	-1	-1,043
2384,917	-0,5	-0,909
2395,416	-0,5	-0,861
2405,91	-1	-1,008
2416,403	-1	-1,128
2426,908	-1	-1,114
2437,414	-1	-1,148
2447,931	-0,5	-0,963
2458,425	-0,5	-0,87
2468,93	0	-0,729
2479,417	0	-0,539
2489,917	0,5	-0,4
2500,422	0,5	-0,237
2510,922	0	-0,375
2521,421	0	-0,276
2531,908	0	-0,495
2542,426	0	-0,399
2552,925	0	-0,51
2563,419	0	-0,509
2573,918	0	-0,488
2584,417	-0,5	-1,009
2594,917	-1,5	-1,444
2605,404	-3	-2,052
2615,91	-3,5	-2,091
2626,409	-4	-2,214
2636,914	-5,5	-2,459
2647,414	-6,5	-2,667
2657,919	-6	-2,685
2668,425	-8	-2,964
2678,924	-10,5	-3,5
2689,429	-10	-3,493
2699,935	-9	-3,462
2710,44	-9	-3,449
2720,94	-8,5	-3,412
2731,427	-6	-3,218
2741,938	-4,5	-2,806
2752,432	-3	-2,249
2762,943	-2,5	-2,176
2773,437	-2,5	-1,987
2783,936	-2	-1,885
2794,429	-1,5	-1,521
2804,935	0	-0,971
2815,428	1,5	-0,511
2825,922	2,5	-0,132
2836,433	2,5	-0,001
2846,932	2,5	-0,005
2857,432	2,5	-0,007
2867,925	2,5	-0,014
2878,431	2	-0,058
2888,936	1	-0,111
2899,429	1	-0,211
2909,935	0	-0,43
2920,434	0	-0,526
2930,934	0	-0,659
2941,433	0	-0,494
2951,932	0	-0,606
2962,426	0	-0,663
2972,937	0	-0,704
2983,443	0	-0,574
2993,948	0	-0,495
3004,441	1	-0,192
3014,941	2	-0,043
3025,44	2	-0,009
3035,94	2,5	-0,003
3046,433	2,5	-0,001
3056,932	2	-0,147
3067,432	1,5	-0,422
3077,949	-0,5	-0,907
3088,449	-0,5	-1,041
3098,942	-0,5	-1,23
3109,441	-1	-1,441
3119,959	-1,5	-1,808
3130,452	-1,5	-1,937
3140,952	-2	-2,058
3150,947	2,5	-0,001