File: ensaios_Ciclicos/_40perc/_3gap/entrada/_3.txt
Time (s)	Load (N)	Displacement (mm)
0	0	-0,036
10,601	1	-0,223
21,094	1	-0,005
31,594	1	-0,034
42,081	-0,5	-0,31
52,568	-4	-0,994
63,08	-5,5	-1,348
73,579	-7,5	-1,614
84,097	-9	-1,838
94,614	-12	-2,162
105,114	-19	-3,077
115,631	-20	-3,5
126,148	-19,5	-3,497
136,672	-19,5	-3,495
147,195	-19,5	-3,496
157,707	-19,5	-3,49
168,242	-19	-3,466
178,771	-16,5	-3,347
189,295	-14	-3,076
199,824	-10,5	-2,725
210,347	-8,5	-2,425
220,865	-8	-2,288
231,424	-7	-2,167
241,96	-5,5	-1,964
252,501	-7	-2,243
263,042	-7	-2,256
273,572	-9	-2,587
284,125	-13	-3,076
294,679	-15	-3,32
305,214	-16,5	-3,418
315,749	-14	-3,268
326,273	-14,5	-3,318
336,82	-16	-3,436
347,362	-17,5	-3,464
357,909	-17,5	-3,487
368,45	-17,5	-3,495
378,992	-17,5	-3,498
389,539	-17,5	-3,5
400,092	-17,5	-3,192
410,652	-13,5	-2,71
421,205	-10	-2,313
431,747	-7	-1,927
442,294	-4,5	-1,539
452,836	-2,5	-1,147
463,377	-0,5	-0,661
473,912	0	-0,38
484,46	1	-0,112
495,007	1	-0,087
505,561	1	-0,148
516,126	1,5	-0,065
526,679	2	-0,037
537,233	2	-0,014
547,78	2	-0,011
558,334	2	-0,01
568,875	2	-0,009
579,434	2,5	-0,006
589,982	2,5	-0,003
600,523	2,5	-0,002
611,088	2	-0,216
621,642	0,5	-0,59
632,189	-1,5	-0,962
642,731	-2	-1,076
653,272	-3	-1,399
663,825	-4	-1,7
674,373	-4,5	-1,918
684,92	-4,5	-1,909
695,468	-5	-2,011
706,015	-4,5	-1,916
716,562	-3	-1,444
727,104	-4	-1,876
737,675	-6	-2,427
748,217	-9	-2,809
758,77	-12	-3,252
769,3	-15	-3,46
779,859	-16	-3,482
790,406	-15	-3,452
800,93	-13	-3,369
811,471	-14	-3,374
822,012	-15	-3,45
832,548	-14	-3,405
843,095	-14,5	-3,41
853,631	-14,5	-3,409
864,178	-15	-3,464
874,713	-13,5	-3,379
885,255	-10,5	-3,092
895,784	-7,5	-2,647
906,32	-4	-1,896
916,855	-0,5	-0,774
927,39	1	-0,533
937,926	2	-0,248
948,479	2	-0,048
959,015	2	-0,001
969,55	2,5	-0,006
980,091	2	-0,02
990,633	2	-0,024
1001,186	2,5	-0,008
1011,728	2,5	-0,009
1022,263	2	-0,014
1032,798	2	-0,019
1043,34	2,5	-0,018
1053,881	2,5	-0,012
1064,429	2	-0,018
1074,976	2,5	-0,013
1085,505	2	-0,017
1096,041	2,5	-0,025
1106,582	2,5	-0,014
1117,106	2,5	-0,005
1127,653	2,5	-0,001
1138,182	2,5	0
1148,712	2,5	0
1159,247	2,5	-0,003
1169,771	2	-0,01
1180,288	2,5	-0,002
1190,805	2	0
1201,335	2	-0,137
1211,864	2	-0,298
1222,4	-0,5	-0,831
1232,929	-2	-1,363
1243,452	-3	-1,797
1253,982	-4	-2,085
1264,511	-6,5	-2,607
1275,047	-10,5	-3,212
1285,576	-14	-3,449
1296,111	-15	-3,494
1306,635	-15	-3,432
1317,17	-14	-3,007
1327,706	-10	-2,603
1338,229	-7,5	-2,324
1348,752	-4,5	-1,752
1359,276	-2,5	-1,265
1369,799	-1	-0,928
1380,335	0	-0,374
1390,858	1,5	-0,103
1401,387	2	-0,031
1411,917	3	-0,006
1422,434	2,5	-0,003
1432,958	2,5	0
1443,493	1	-0,49
1454,016	-0,5	-0,822
1464,546	-1	-1,057
1475,075	-1,5	-1,196
1485,599	-1,5	-1,274
1496,128	-2	-1,392
1506,646	-2,5	-1,657
1517,175	-2,5	-1,664
1527,71	-3	-1,806
1538,228	-3	-1,717
1548,739	-2,5	-1,65
1559,268	-3,5	-1,819
1569,792	-3	-1,821
1580,315	-4,5	-2,208
1590,826	-5,5	-2,411
1601,344	-9	-2,965
1611,867	-10	-3,111
1622,397	-10,5	-3,24
1632,926	-12	-3,341
1643,45	-11,5	-3,364
1653,979	-13,5	-3,424
1664,508	-13	-3,396
1675,032	-13	-3,4
1685,549	-11	-3,308
1696,079	-9,5	-3,059
1706,596	-7,5	-2,748
1717,119	-4,5	-2,237
1727,649	-1,5	-1,265
1738,178	2	-0,457
1748,702	2,5	-0,294
1759,225	2,5	-0,004
1769,754	2,5	-0,018
1780,284	2,5	-0,028
1790,807	2,5	-0,031
1801,342	1	-0,136
1811,866	0	-0,561
1822,389	-0,5	-0,685
1832,919	-1	-1,009
1843,436	-2	-1,27
1853,965	-2	-1,411
1864,495	-2,5	-1,427
1875,018	-1,5	-1,062
1885,542	-1	-0,99
1896,071	0	-0,408
1906,6	0,5	-0,192
1917,124	0	-0,427
1927,653	0	-0,384
1938,183	0	-0,749
1948,706	-0,5	-0,784
1959,235	-0,5	-0,948
1969,759	-0,5	-0,986
1980,282	-0,5	-0,932
1990,806	-1	-1,183
2001,335	-1,5	-1,221
2011,871	-1,5	-1,209
2022,4	-1,5	-1,254
2032,917	-2	-1,384
2043,435	-1,5	-1,288
2053,958	-3	-1,71
2064,487	-2,5	-1,491
2075,005	-3,5	-1,753
2085,522	-5,5	-2,215
2096,052	-9	-2,724
2106,575	-10,5	-2,87
2117,098	-13,5	-3,466
2127,616	-13,5	-3,499
2138,139	-13,5	-3,494
2148,663	-13,5	-3,49
2159,192	-13	-3,477
2169,709	-12,5	-3,439
2180,227	-12	-3,4
2190,732	-11	-3,361
2201,256	-12,5	-3,445
2211,791	-11,5	-3,388
2222,32	-8,5	-3,144
2232,844	-7,5	-2,925
2243,373	-6,5	-2,887
2253,891	-7	-2,956
2264,408	-6	-2,716
2274,919	-3,5	-2,234
2285,443	-3	-2,02
2295,96	-2	-1,615
2306,478	-1,5	-1,471
2317,001	-2	-1,676
2327,536	-2	-1,729
2338,06	-1,5	-1,439
2348,583	-1,5	-1,469
2359,107	-1,5	-1,44
2369,63	-1,5	-1,432
2380,153	-1,5	-1,51
2390,677	-2	-1,598
2401,206	-2,5	-1,844
2411,73	-3	-2,127
2422,253	-3,5	-2,29
2432,776	-4,5	-2,544
2443,3	-4	-2,441
2453,829	-4,5	-2,596
2464,347	-5,5	-2,872
2474,864	-6	-3,005
2485,387	-6,5	-3,029
2495,917	-5	-2,774
2506,434	-4	-2,508
2516,952	-3,5	-2,253
2527,469	-2,5	-1,992
2537,992	-1,5	-1,634
2548,516	-1	-1,36
2559,039	-1	-1,166
2569,569	-0,5	-0,901
2580,092	0	-0,931
2590,603	-1	-0,986
2601,133	1	-0,598
2611,656	1,5	-0,526
2622,18	0	-0,674
2632,703	0	-0,778
2643,226	1	-0,579
2653,756	0	-0,787
2664,273	1,5	-0,511
2674,803	0,5	-0,596
2685,326	1,5	-0,52
2695,843	1	-0,567
2706,367	0,5	-0,57
2716,884	2	-0,334
2727,408	2,5	-0,153
2737,937	2,5	-0,001
2748,454	2,5	-0,003
2758,978	2,5	-0,003
2769,507	2,5	-0,004
2780,019	2,5	-0,007
2790,53	2,5	-0,017
2801,047	2	-0,045
2811,571	1,5	-0,082
2822,088	1,5	-0,086
2832,612	1,5	-0,087
2843,135	0,5	-0,407
2853,652	-0,5	-1,035
2864,182	0	-1,103
2874,705	-0,5	-1,339
2885,223	-0,5	-1,306
2895,74	0	-1,297
2906,269	0	-1,041
2916,793	0	-0,767
2927,316	0	-0,785
2937,84	1	-0,368
2948,363	1,5	-0,116
2958,898	2	-0,04
2969,416	2,5	-0,014
2979,939	2,5	-0,003
2990,463	2,5	-0,065
3000,98	1	-0,529
3011,509	-0,5	-1,201
3022,033	-1	-1,492
3032,556	-2	-2,047
3043,08	-2,5	-2,411
3053,603	-3	-2,776
3064,126	-3,5	-2,859
3074,638	-5	-3,262
3085,161	-6	-3,378
3095,685	-7,5	-3,469
3106,202	-7,5	-3,48
3116,725	-7,5	-3,486
3127,243	-7,5	-3,485
3137,766	-8	-3,495
3148,29	-7,5	-3,499
3157,679	2,5	0