File: ensaios_Ciclicos/_40perc/_3gap/entrada/_4.txt
Time (s)	Load (N)	Displacement (mm)
0	0	-0,036
10,648	0,5	-0,137
21,177	1	-0,001
31,689	1,5	-0,003
42,206	1,5	-0,01
52,73	1	-0,054
63,271	-0,5	-0,3
73,812	-1,5	-0,594
84,342	-4	-1,114
94,877	-8,5	-1,7
105,43	-10	-1,999
115,96	-11	-2,194
126,495	-13	-2,364
137,031	-13,5	-2,429
147,554	-14,5	-2,585
158,113	-14,5	-2,574
168,655	-14	-2,543
179,202	-14	-2,623
189,756	-13,5	-2,613
200,309	-13,5	-2,513
210,856	-13	-2,56
221,416	-13	-2,537
232	-12	-2,34
242,565	-12	-2,393
253,136	-10	-2,176
263,689	-9,5	-2,168
274,237	-10,5	-2,294
284,802	-10,5	-2,294
295,374	-10	-2,252
305,951	-9,5	-2,208
316,504	-10,5	-2,273
327,076	-10	-2,238
337,653	-9,5	-2,219
348,255	-7,5	-1,976
358,832	-7,5	-1,941
369,391	-8	-2,034
379,969	-7,5	-1,948
390,534	-7,5	-1,995
401,1	-7,5	-1,948
411,689	-7,5	-1,986
422,254	-9	-2,151
432,826	-10,5	-2,499
443,403	-12	-2,624
453,957	-14	-2,806
464,534	-14,5	-2,883
475,093	-15	-2,95
485,653	-15,5	-3,002
496,212	-14	-2,865
506,772	-12,5	-2,678
517,343	-11,5	-2,578
527,896	-11	-2,595
538,474	-10,5	-2,508
549,045	-11	-2,569
559,617	-11	-2,624
570,188	-12	-2,634
580,759	-9	-2,334
591,331	-8	-2,154
601,908	-7	-2,042
612,473	-6,5	-1,934
623,057	-5	-1,653
633,628	-3,5	-1,51
644,206	-3	-1,344
654,771	-2,5	-1,2
665,324	-1,5	-0,951
675,89	0	-0,563
686,437	-0,5	-0,471
696,997	0	-0,37
707,556	0	-0,223
718,115	1,5	-0,092
728,687	2	-0,058
739,252	2	-0,044
749,824	2	-0,028
760,389	2,5	-0,017
770,966	2,5	-0,008
781,544	2,5	-0,006
792,097	2,5	-0,006
802,651	2,5	-0,006
813,228	2,5	-0,004
823,793	2	-0,002
834,365	2,5	-0,002
844,93	2,5	-0,001
855,496	2,5	0
866,067	2,5	-0,19
876,626	1,5	-0,388
887,198	0	-0,616
897,751	-1	-0,87
908,323	-1	-0,947
918,888	-2	-1,171
929,459	-3	-1,642
940,031	-4,5	-1,981
950,608	-6	-2,388
961,168	-8,5	-2,767
971,739	-10,5	-3,121
982,292	-13,5	-3,378
992,864	-14	-3,393
1003,429	-13,5	-3,391
1013,983	-13	-3,348
1024,548	-12,5	-3,324
1035,125	-12,5	-3,29
1045,679	-11,5	-3,25
1056,232	-9,5	-2,948
1066,798	-9	-2,901
1077,357	-9	-2,919
1087,928	-8	-2,796
1098,488	-6	-2,564
1109,053	-5,5	-2,458
1119,625	-5,5	-2,324
1130,19	-4	-2,063
1140,743	-3,5	-1,863
1151,303	-3,5	-1,787
1161,868	-3	-1,596
1172,421	-2	-1,308
1182,975	-2	-1,318
1193,534	-2	-1,224
1204,1	-1,5	-1,091
1214,665	-0,5	-0,895
1225,218	0	-0,623
1235,784	1,5	-0,431
1246,343	1,5	-0,407
1256,909	0,5	-0,546
1267,456	-0,5	-0,87
1278,027	-1	-0,848
1288,581	-1	-1,097
1299,14	-2	-1,259
1309,694	-1,5	-1,268
1320,265	-1,5	-1,252
1330,837	-2	-1,484
1341,396	-3	-1,667
1351,949	-2,5	-1,622
1362,509	-3	-1,752
1373,068	-3	-1,723
1383,633	-3	-1,803
1394,193	-3,5	-1,858
1404,752	-3	-1,733
1415,318	-3,5	-1,882
1425,859	-3	-1,688
1436,418	-3	-1,749
1446,984	-3,5	-1,899
1457,537	-3,5	-1,919
1468,097	-4	-1,981
1478,644	-4,5	-2,214
1489,203	-5,5	-2,429
1499,763	-7,5	-2,739
1510,322	-7,5	-2,762
1520,888	-7,5	-2,843
1531,435	-8,5	-2,923
1541,988	-9	-3,05
1552,554	-10	-3,124
1563,095	-8	-2,83
1573,649	-9,5	-3,046
1584,208	-10,5	-3,258
1594,755	-9,5	-3,182
1605,297	-9	-3,036
1615,85	-9,5	-3,141
1626,404	-10	-3,204
1636,963	-11	-3,311
1647,522	-12,5	-3,402
1658,088	-12	-3,364
1668,647	-11	-3,341
1679,213	-12	-3,38
1689,766	-9	-3,179
1700,313	-10,5	-3,317
1710,867	-11,5	-3,356
1721,42	-12,5	-3,396
1731,968	-13,5	-3,449
1742,521	-13	-3,416
1753,08	-12,5	-3,4
1763,64	-12	-3,377
1774,199	-11,5	-3,356
1784,764	-10	-3,229
1795,318	-9,5	-3,172
1805,865	-9,5	-3,189
1816,419	-10,5	-3,295
1826,972	-11	-3,314
1837,531	-11,5	-3,387
1848,109	-13	-3,449
1858,662	-13,5	-3,459
1869,216	-13,5	-3,461
1879,769	-13,5	-3,463
1890,328	-14	-3,459
1900,888	-13,5	-3,466
1911,441	-13	-3,448
1922,007	-13,5	-3,458
1932,548	-13	-3,447
1943,107	-14	-3,477
1953,673	-14	-3,491
1964,226	-14,5	-3,495
1974,78	-14,5	-3,497
1985,339	-14	-3,497
1995,898	-14,5	-3,498
2006,446	-14	-3,498
2016,987	-14,5	-3,499
2027,535	-14,5	-3,499
2038,1	-14	-3,5
2048,659	-14	-3,433
2059,219	-14	-3,263
2069,772	-14	-3,247
2080,338	-11,5	-2,994
2090,885	-12	-2,94
2101,444	-12	-2,821
2111,998	-12	-2,966
2122,545	-14	-3,217
2133,117	-14	-3,365
2143,67	-14	-3,456
2154,235	-14	-3,445
2164,789	-14	-3,248
2175,336	-13,5	-3,161
2185,884	-13,5	-3,192
2196,425	-14	-3,185
2206,978	-13,5	-3,094
2217,532	-11,5	-2,915
2228,079	-9	-2,626
2238,627	-8,5	-2,635
2249,18	-7,5	-2,429
2259,739	-5,5	-2,145
2270,293	-6	-2,268
2280,858	-7	-2,38
2291,412	-7,5	-2,466
2301,959	-9,5	-2,699
2312,512	-10	-2,802
2323,072	-10	-2,832
2333,619	-10,5	-2,943
2344,185	-12	-3,13
2354,738	-13,5	-3,294
2365,279	-13	-3,327
2375,833	-13	-3,264
2386,392	-13	-3,342
2396,934	-13	-3,499
2407,493	-13,5	-3,499
2418,046	-13	-3,499
2428,6	-13	-3,499
2439,141	-13	-3,499
2449,701	-13	-3,499
2460,248	-13	-3,499
2470,801	-13	-3,499
2481,355	-13	-3,499
2491,908	-12,5	-3,499
2502,467	-12,5	-3,499
2513,021	-12,5	-3,5
2523,574	-12,5	-3,376
2534,128	-11	-3,112
2544,681	-10,5	-2,959
2555,234	-8,5	-2,753
2565,782	-8,5	-2,719
2576,335	-8	-2,694
2586,889	-8	-2,78
2597,436	-9,5	-2,832
2607,995	-8,5	-2,724
2618,561	-7,5	-2,714
2629,114	-8	-2,677
2639,668	-6,5	-2,555
2650,215	-5	-2,359
2660,774	-3,5	-2,063
2671,334	-4	-2,108
2681,887	-2,5	-1,898
2692,453	-1,5	-1,589
2703,012	-1	-1,278
2713,553	-0,5	-1,101
2724,119	0	-0,739
2734,672	0	-0,549
2745,214	0,5	-0,419
2755,761	0,5	-0,36
2766,302	0,5	-0,234
2776,862	1,5	-0,091
2787,409	2	-0,035
2797,963	2,5	-0,013
2808,528	2,5	-0,006
2819,087	2,5	-0,003
2829,647	3	-0,001
2840,188	2,5	-0,121
2850,736	1,5	-0,468
2861,289	0	-0,866
2871,83	-0,5	-1,06
2882,378	-0,5	-1,092
2892,943	-0,5	-1,337
2903,497	-1,5	-1,571
2914,05	-1,5	-1,718
2924,609	-2,5	-2,104
2935,151	-3	-2,308
2945,716	-3,5	-2,666
2956,27	-5	-3,014
2966,829	-6	-3,228
2977,388	-7,5	-3,388
2987,936	-7,5	-3,428
2998,501	-8,5	-3,465
3009,049	-8	-3,468
3019,596	-8,5	-3,484
3030,143	-8,5	-3,49
3040,697	-8	-3,491
3051,25	-8,5	-3,491
3061,798	-8	-3,496
3072,339	-8	-3,498
3082,892	-8,5	-3,497
3093,434	-8	-3,494
3103,981	-8	-3,492
3114,535	-8	-3,484
3125,082	-8	-3,488
3135,629	-8	-3,491
3146,183	-8	-3,494
3156,73	-8	-3,492
3164,29	3	0