File: ensaios_Ciclicos/_40perc/_3gap/entrada/_5.txt
Time (s)	Load (N)	Displacement (mm)
72,223	-22,5	-3,497
79,465	1,5	-0,036
86,688	-9	-2,172
93,9	-20,5	-3,059
101,119	2	-0,021
108,341	-10,5	-2,438
115,554	-18,5	-2,84
122,776	2,5	-0,005
130,012	-12,5	-2,8
137,241	-13	-2,35
144,477	2	-0,001
151,713	-18	-3,348
158,936	-7	-1,635
166,16	2	-0,19
173,389	-20,5	-3,482
253,065	-18	-3,424
260,288	-4	-1,387
267,554	0	-0,638
274,789	-19,5	-3,495
282,031	0	-0,484
289,273	-4,5	-1,627
296,514	-19,5	-3,383
303,751	2	-0,025
311,003	-9	-2,475
318,245	-13	-2,573
325,499	2,5	-0,003
332,746	-15	-3,285
339,982	-5,5	-1,704
347,235	2,5	-0,224
354,477	-19	-3,487
470,414	-3,5	-1,538
477,65	-18,5	-3,499
484,891	2	-0,047
492,139	-8	-2,435
499,393	-12	-2,633
506,634	3	-0,002
513,87	-13,5	-3,135
521,105	-6,5	-1,96
528,341	2,5	-0,014
535,6	-17,5	-3,477
542,836	-2	-1,128
550,084	-0,5	-0,897
557,313	-18	-3,497
564,561	1	-0,158
571,802	-4	-1,822
579,038	-17,5	-3,129
586,268	3	-0,014
593,503	-8	-2,595
600,757	-10,5	-2,434
607,998	3	-0,001
723,882	-7	-2,098
731,129	3	-0,001
738,371	-14,5	-3,378
745,625	-4	-1,641
752,866	2,5	-0,325
760,102	-17	-3,478
767,349	-1,5	-1,015
774,585	-1	-0,929
781,832	-17	-3,498
789,062	0,5	-0,411
796,304	-2,5	-1,429
803,539	-17	-3,499
810,787	1	-0,179
818,028	-3,5	-1,741
825,252	-17	-3,5
832,488	1,5	-0,122
839,729	-4	-1,721
846,977	-17	-3,5
854,206	2	-0,076
861,454	-4,5	-1,912
868,695	-16,5	-3,348
875,925	2,5	-0,036
883,161	-5	-2,146
890,396	-14	-2,938
897,632	3	-0,01
904,873	-7,5	-2,557
912,103	-12	-2,747
919,345	3	-0,01
926,58	-7,5	-2,577
933,822	-10,5	-2,529
941,057	3	-0,003
948,281	-8,5	-2,76
955,517	-9	-2,377
962,752	3	-0,002
970,003	-12	-3,235
1194,297	0	-0,644
1201,526	-1,5	-1,105
1208,75	-16	-3,498
1215,992	0	-0,502
1223,227	-2	-1,138
1230,457	-16	-3,497
1237,686	0	-0,713
1244,916	-1,5	-1,058
1252,152	-16	-3,497
1259,412	0	-0,538
1266,647	-1,5	-1,092
1273,876	-16	-3,497
1281,106	0	-0,545
1288,335	-1,5	-1,144
1295,565	-15,5	-3,498
1302,801	0,5	-0,409
1310,03	-2	-1,335
1317,266	-15,5	-3,5
1324,495	2	-0,07
1331,713	-3,5	-1,915
1338,955	-15	-3,199
1346,19	3	-0,017
1353,42	-6	-2,382
1360,661	-10	-2,687
1367,879	3	-0,007
1375,121	-7	-2,623
1382,356	-9	-2,555
1389,58	3	-0,003
1396,809	-12	-3,342
1404,039	-4	-1,837
1411,268	3	-0,003
1418,504	-14,5	-3,438
1425,722	-2,5	-1,538
1432,951	2,5	-0,268
1440,181	-15	-3,481
1447,41	-1	-1,256
1454,64	1	-0,535
1461,87	-15	-3,482
1469,093	-1	-1,148
1476,323	0	-0,68
1483,558	-15	-3,493
1490,788	0	-0,768
1498,017	-1	-0,901
1505,253	-15	-3,496
1512,489	0	-0,644
1519,718	-0,5	-0,914
1526,954	-15,5	-3,496
1534,183	-0,5	-0,892
1541,419	0	-0,728
1548,649	-15	-3,489
1555,872	-1	-1,077
1563,108	1	-0,557
1570,337	-15	-3,486
1577,567	-1,5	-1,187
1584,797	1,5	-0,461
1592,026	-15	-3,479
1599,256	-2,5	-1,405
1606,479	3	-0,18
1613,709	-15	-3,46
1620,939	-3,5	-1,691
1628,174	3	0
1635,416	-12,5	-3,413
1642,645	-4,5	-1,872
1649,881	3	-0,001
1657,11	-11	-3,29
1664,34	-5	-2,034
1671,57	3	-0,001
1678,793	-9,5	-3,153
1686,041	-6	-2,17
1693,27	3	-0,002
1700,5	-8,5	-2,883
1707,73	-7,5	-2,309
1714,959	3	-0,004
1722,177	-8	-2,79
1729,406	-9,5	-2,62
1736,642	3	-0,005
1743,871	-7	-2,602
1751,101	-9	-2,601
1758,325	3	-0,008
1765,554	-5,5	-2,446
1772,778	-13,5	-3,034
1780,013	2,5	-0,047
1787,243	-3	-1,885
1794,467	-15	-3,244
1801,69	2,5	-0,056
1808,914	-3,5	-1,965
1816,143	-15	-3,499
1823,379	1,5	-0,128
1830,609	-3	-1,702
1837,844	-15	-3,499
1845,074	1,5	-0,148
1852,297	-2,5	-1,612
1859,521	-15	-3,499
1866,756	1,5	-0,183
1873,98	-2	-1,437
2025,789	3	-0,299
2033,025	-13,5	-3,446
2040,249	-3	-1,661
2047,478	3	0
2054,72	-13	-3,417
2061,943	-4	-1,876
2069,173	3	-0,001
2076,402	-11	-3,325
2083,632	-4,5	-1,961
2090,862	3	-0,001
2098,091	-11	-3,293
2105,327	-4,5	-1,927
2112,556	3	-0,001
2119,798	-10	-3,242
2127,022	-6	-2,216
2134,257	3	-0,002
2141,487	-9	-3,048
2148,716	-6	-2,298
2155,94	3	-0,003
2163,163	-6	-2,722
2170,387	-9	-2,624
2177,611	3	-0,005
2184,852	-6,5	-2,722
2192,088	-9,5	-2,696
2199,311	3	-0,008
2206,547	-5,5	-2,501
2213,771	-11,5	-2,908
2221	3	-0,017
2228,236	-4	-2,225
2235,477	-14,5	-3,159
2242,701	3	-0,024
2249,943	-4,5	-2,346
2257,172	-12	-2,948
2264,396	3	-0,02
2271,625	-4	-2,161
2278,849	-14,5	-3,311
2286,084	2,5	-0,052
2293,314	-3	-1,912
2300,544	-14,5	-3,475
2307,767	2	-0,077
2351,145	2	-0,072
2358,374	-3	-1,842
2365,598	-15	-3,486
2372,834	2	-0,093
2380,063	-2,5	-1,747
2387,287	-14,5	-3,499
2394,516	1,5	-0,213
2401,746	-2	-1,44
2408,957	-15	-3,498
2416,187	0	-0,554
2423,423	-1	-1,172
2430,658	-15	-3,497
2437,894	0	-0,597
2445,123	-1	-0,961
2452,359	-15	-3,496
2495,737	-14,5	-3,493
2502,966	0	-0,962
2510,202	0	-0,73
2517,437	-14,5	-3,49
2524,655	-0,5	-0,968
2531,891	0,5	-0,657
2539,126	-14,5	-3,492
2546,356	-1	-1,046
2553,579	1,5	-0,609
2560,815	-14	-3,485
2568,038	-1,5	-1,274
2575,268	3	-0,261
2582,492	-12,5	-3,42
2589,715	-3,5	-1,779
2596,945	3	-0,014
2784,824	-10,5	-2,835
2792,048	3	-0,01
2799,271	-4	-2,349
2806,501	-12	-3,029
2813,724	3	-0,027
2820,942	-3	-2,116
2828,172	-12,5	-3,284
2835,389	2,5	-0,073
2842,613	-2	-1,632
2849,824	-12,5	-3,498
2929,32	3	-0,001
2936,555	-8	-3,226
2943,779	-4,5	-2,261
2951,002	3	-0,004
2958,238	-5	-2,638
2965,456	-9	-2,955
2972,679	2,5	-0,028
2979,903	-2,5	-1,901
2987,132	-12	-3,499
2994,356	1	-0,252
3001,58	-1,5	-1,516
3008,809	-12,5	-3,498
3016,033	0,5	-0,56
3023,268	-0,5	-0,984
3030,504	-12	-3,496
3037,728	-0,5	-1,009
3044,951	0	-0,773
3052,175	-12	-3,489
3059,41	0	-1,067
3066,64	3	-0,416
3073,863	-10	-3,437
3081,093	-1,5	-1,666
3088,323	3	-0,041
3095,552	-8,5	-3,35
3102,776	-3	-2
3109,999	3	-0,002
3117,241	-5,5	-2,947
3124,471	-5,5	-2,603
3131,7	3	-0,006
3138,93	-4	-2,585
3182,253	-1	-1,345
3189,489	-10,5	-3,498
3196,718	0	-0,56
3203,948	-0,5	-0,986
3211,178	-10,5	-3,496
3218,395	0	-1,078
3225,619	2	-0,402
3232,842	-9	-3,448
3240,084	-1,5	-1,684
3247,308	3	0
3251,645	3	0