File: ensaios_Ciclicos/_50perc/_4gap/entrada/_2.txt
Time (s)	Load (N)	Displacement (mm)
0	0	-0,03
10,953	0	-0,67
21,734	1	-0,426
32,528	2	0
43,321	2,5	-0,001
54,097	2,5	-0,004
64,92	3	-0,003
75,731	3	-0,002
86,537	3	-0,002
97,342	3	-0,001
108,196	3	-0,055
119,013	3	-0,107
129,836	3,5	-0,124
140,696	3	-0,338
151,531	3	-0,476
162,36	1,5	-0,655
173,184	1	-0,78
184,025	0	-0,869
194,861	1,5	-0,741
205,72	0,5	-0,877
216,555	0	-1,116
227,391	0	-1,08
238,22	0,5	-0,911
249,086	0	-0,945
259,921	0,5	-0,827
270,775	0	-0,95
281,628	0,5	-0,901
292,475	2	-0,743
303,322	0	-0,989
314,158	-0,5	-1,148
325,017	-3	-1,587
335,858	-4,5	-1,936
346,694	-5,5	-2,341
357,535	-7,5	-2,605
368,395	-9,5	-2,883
379,236	-11	-3,116
390,071	-9,5	-3,026
400,901	-9,5	-2,952
411,712	-10	-2,95
422,548	-11	-3,238
433,383	-14	-3,432
444,23	-15	-3,48
455,066	-15	-3,479
465,889	-15	-3,482
476,706	-15	-3,484
487,536	-15	-3,492
498,365	-15	-3,496
509,207	-15	-3,499
520,048	-15	-3,499
530,883	-14,5	-3,35
541,725	-13,5	-3,067
552,554	-11	-2,778
563,39	-8	-2,363
574,249	-5	-1,967
585,096	-4	-1,635
595,92	-1,5	-1,276
606,737	0	-0,893
617,56	1,5	-0,495
628,378	2,5	-0,289
639,177	2,5	-0,244
650,008	3,5	-0,11
660,824	4	-0,091
671,647	4,5	-0,046
682,465	4,5	-0,031
693,288	4,5	-0,029
704,105	4	-0,031
714,923	4,5	-0,026
725,74	4,5	-0,03
736,546	4,5	-0,019
747,375	4,5	-0,008
758,204	4,5	-0,007
769,022	4,5	-0,004
779,827	5	-0,002
790,632	4,5	-0,002
801,462	4,5	-0,002
812,285	4,5	-0,001
823,103	5	-0,014
833,914	5	0
844,731	4,5	-0,049
855,555	4,5	-0,135
866,378	4,5	-0,234
877,202	4,5	-0,239
888,037	5	-0,21
898,854	4,5	-0,352
909,666	4	-0,44
920,489	2	-0,822
931,3	0,5	-1,052
942,13	-1,5	-1,656
952,947	-2	-1,725
963,759	-2,5	-1,892
974,588	-3	-2,096
985,405	-4	-2,207
996,211	-3,5	-2,159
1007,028	-4,5	-2,382
1017,846	-6	-2,719
1028,657	-6,5	-2,805
1039,462	-7	-2,916
1050,268	-8	-3,068
1061,079	-9	-3,242
1071,897	-11	-3,406
1082,702	-11,5	-3,42
1093,537	-11,5	-3,431
1104,355	-12	-3,45
1115,16	-12,5	-3,476
1125,977	-12	-3,466
1136,795	-12,5	-3,486
1147,612	-12,5	-3,492
1158,417	-12,5	-3,496
1169,235	-12,5	-3,499
1180,034	-12,5	-3,5
1190,846	-12,5	-3,499
1201,657	-12,5	-3,499
1212,468	-12,5	-3,435
1223,28	-12,5	-3,5
1234,097	-12	-3,497
1244,921	-12	-3,5
1255,732	-12	-3,497
1266,549	-12	-3,478
1277,367	-8,5	-3,193
1288,19	-5	-2,57
1299,008	-2,5	-1,965
1309,819	-3	-2,151
1320,624	-3,5	-2,262
1331,424	-2,5	-2,002
1342,223	0	-1,451
1353,016	4	-0,549
1363,822	5	-0,203
1374,639	5	0
1385,439	5	-0,002
1396,256	5	-0,004
1407,049	5	-0,002
1417,867	5	-0,001
1428,678	5	-0,001
1439,477	5,5	-0,002
1450,277	5	-0,002
1461,082	5	-0,005
1471,9	5	-0,005
1482,699	5	-0,007
1493,504	4,5	-0,06
1504,304	4	-0,145
1515,121	4	-0,122
1525,933	3	-0,405
1536,732	1,5	-0,698
1547,537	0	-1,204
1558,349	-2	-1,893
1569,166	-5	-2,53
1579,977	-9	-3,221
1590,783	-9	-3,499
1601,588	-9	-3,492
1612,394	-8	-3,417
1623,193	-5,5	-3,202
1633,992	-5	-2,99
1644,798	-5	-2,893
1655,603	-4	-2,659
1666,414	-3	-2,401
1677,244	-1,5	-1,924
1688,055	0	-1,362
1698,861	2	-0,936
1709,66	4	-0,517
1720,471	4,5	-0,338
1731,271	5	-0,011
1742,088	5	-0,001
1752,882	5	-0,003
1763,687	5	-0,004
1774,492	5	-0,006
1785,298	5	-0,013
1796,097	5	-0,018
1806,902	5	-0,022
1817,708	5	-0,012
1828,519	5	-0,01
1839,319	4,5	-0,008
1850,124	5	-0,005
1860,929	5	-0,006
1871,741	5	-0,003
1882,534	5	-0,002
1893,333	5	-0,002
1904,139	5	-0,004
1914,938	5	-0,004
1925,732	5	-0,004
1936,543	5	-0,004
1947,348	5	-0,004
1958,148	4,5	-0,002
1968,941	5	-0,002
1979,741	5	-0,001
1990,54	5	-0,001
2001,369	4,5	0
2012,169	5	-0,009
2022,974	5	-0,227
2033,779	4,5	-0,377
2044,585	4,5	-0,381
2055,39	4,5	-0,3
2066,178	4,5	-0,31
2076,977	4,5	-0,401
2087,794	4,5	-0,38
2098,6	4,5	-0,427
2109,387	4	-0,336
2120,193	4	-0,536
2130,986	3	-0,705
2141,791	1,5	-0,965
2152,591	1	-1,109
2163,384	0,5	-1,137
2174,183	1	-1,128
2184,983	1	-1,123
2195,794	0	-1,482
2206,588	-0,5	-1,756
2217,387	-1	-1,991
2228,204	-1,5	-2,197
2238,998	-2	-2,232
2249,791	-2	-2,352
2260,585	-2,5	-2,435
2271,384	-2,5	-2,542
2282,189	-3	-2,722
2292,989	-2,5	-2,653
2303,794	-3,5	-2,833
2314,605	-4	-3,106
2325,399	-4	-3,125
2336,198	-4,5	-3,279
2346,986	-4,5	-3,279
2357,773	-5	-3,33
2368,578	-5,5	-3,421
2379,372	-6	-3,445
2390,171	-6	-3,475
2400,964	-6	-3,483
2411,764	-6	-3,492
2422,569	-6	-3,498
2433,369	-6	-3,499
2444,162	-6	-3,499
2454,961	-5,5	-3,48
2465,761	-5,5	-3,242
2476,566	-5	-3,145
2487,366	-4	-2,967
2498,165	-4	-2,903
2508,976	-2,5	-2,581
2519,776	-3	-2,559
2530,587	-1	-2,142
2541,393	-0,5	-1,841
2552,192	0	-1,605
2562,991	0,5	-1,137
2573,791	1	-0,833
2584,584	2	-0,453
2595,371	2	-0,252
2606,177	3,5	-0,102
2616,97	4	-0,045
2627,764	4	-0,02
2638,557	4,5	-0,01
2649,356	4,5	-0,003
2660,156	4,5	-0,001
2670,943	4	-0,001
2681,742	4	-0,063
2692,554	4	-0,257
2703,347	3,5	-0,405
2714,147	2	-0,784
2724,958	1,5	-1,021
2735,757	0	-1,426
2746,557	0	-1,622
2757,356	-0,5	-1,99
2768,144	-0,5	-2,107
2778,937	-1	-2,216
2789,73	-1,5	-2,467
2800,53	-1,5	-2,639
2811,329	-2,5	-2,99
2822,116	-2,5	-3,117
2832,91	-3	-3,276
2843,721	-4,5	-3,414
2854,521	-4,5	-3,455
2865,326	-5	-3,472
2876,131	-4,5	-3,478
2886,925	-5	-3,486
2897,73	-5	-3,489
2908,523	-5	-3,494
2919,323	-5	-3,496
2930,116	-5	-3,498
2940,91	-4,5	-3,498
2951,709	-4,5	-3,499
2962,508	-4,5	-3,415
2973,296	-4,5	-3,266
2984,083	-4	-3,092
2994,883	-2,5	-2,794
3005,682	-2,5	-2,77
3016,487	-2,5	-2,846
3027,281	-2,5	-2,739
3038,08	-2	-2,652
3048,879	-2	-2,497
3059,655	-1,5	-2,435
3070,454	-1	-2,212
3081,242	-1	-2,206
3092,029	-0,5	-2,138
3102,81	-0,5	-2,01
3113,616	-0,5	-1,974
3124,397	-0,5	-2,014
3135,191	0	-1,725
3145,984	0	-1,616
3156,795	0	-1,545
3167,589	0	-1,368
3178,388	0	-1,433
3189,247	0,5	-1,065
3200,053	0,5	-1,045
3210,84	0,5	-1,233
3221,64	0	-1,29
3232,427	0	-1,418
3239,543	4	0