File: ensaios_Ciclicos/_50perc/_4gap/entrada/_3.txt
Time (s)	Load (N)	Displacement (mm)
0	0	-0,026
10,701	0,5	-0,342
21,357	0,5	-0,318
32,012	0	-0,478
42,667	-0,5	-0,7
53,341	-2,5	-1,033
64,008	-3,5	-1,214
74,705	-3,5	-1,449
85,373	-4	-1,46
96,034	-3	-1,286
106,714	-3	-1,229
117,381	-1,5	-0,995
128,048	-2,5	-1,139
138,716	-3	-1,363
149,389	-4	-1,542
160,063	-5,5	-1,965
170,73	-8	-2,406
181,397	-9	-2,651
192,053	-9,5	-2,75
202,726	-11,5	-3,034
213,393	-12	-3,184
224,055	-14	-3,362
234,728	-14,5	-3,393
245,402	-14,5	-3,415
256,099	-15,5	-3,476
266,796	-15,5	-3,492
277,47	-15,5	-3,493
288,131	-15,5	-3,496
298,805	-15,5	-3,496
309,502	-15,5	-3,498
320,187	-15,5	-3,499
330,849	-15,5	-3,499
341,516	-15	-3,5
352,19	-15	-3,5
362,857	-15	-3,499
373,548	-15	-3,499
384,234	-15	-3,5
394,919	-15	-3,5
405,61	-15	-3,499
416,302	-15	-3,5
426,993	-15	-3,5
437,703	-15	-3,226
448,37	-14,5	-3,115
459,055	-15	-3,332
469,747	-14	-3,083
480,438	-12,5	-2,888
491,124	-11,5	-2,798
501,809	-11,5	-2,788
512,494	-11,5	-2,74
523,18	-10	-2,645
533,853	-10	-2,583
544,545	-9	-2,532
555,248	-5,5	-2,039
565,939	-5	-1,914
576,631	-4,5	-1,714
587,31	-3	-1,429
598,013	-2,5	-1,31
608,711	-1,5	-1,058
619,396	-0,5	-0,878
630,094	0	-0,567
640,773	1	-0,322
651,458	0	-0,344
662,132	1,5	-0,174
672,829	1,5	-0,11
683,509	2	-0,055
694,182	1,5	-0,09
704,843	1,5	-0,116
715,511	1,5	-0,167
726,196	1,5	-0,141
736,888	0,5	-0,288
747,597	0,5	-0,401
758,282	0	-0,614
768,974	-0,5	-0,771
779,647	0	-0,73
790,332	-0,5	-0,874
801,036	-0,5	-0,736
811,733	-1	-0,921
822,431	-1	-0,964
833,134	-1	-1,033
843,837	-1	-1,05
854,541	-0,5	-0,918
865,232	-1	-1,058
875,924	-1	-0,996
886,645	-0,5	-0,902
897,342	0	-0,795
908,028	0	-0,609
918,743	0,5	-0,348
929,428	0,5	-0,281
940,126	1,5	-0,118
950,823	2,5	-0,047
961,515	2,5	-0,028
972,218	2,5	-0,024
982,909	2,5	-0,039
993,607	2,5	-0,019
1004,286	3	-0,027
1014,984	3	-0,015
1025,675	3	-0,018
1036,366	3	-0,014
1047,052	3	-0,018
1057,743	3	-0,017
1068,441	3	-0,012
1079,15	3	-0,007
1089,835	2,5	-0,004
1100,521	3	-0,003
1111,206	3	-0,003
1121,903	3	-0,002
1132,583	3	-0,004
1143,28	3	-0,004
1153,984	3	-0,003
1164,681	3	-0,002
1175,372	3	-0,002
1186,07	3	-0,001
1196,767	3	-0,001
1207,453	3	-0,001
1218,15	3	-0,002
1228,835	3	-0,001
1239,515	3	-0,001
1250,218	2,5	0
1260,916	3	-0,001
1271,613	3	-0,001
1282,316	3	-0,001
1293,014	3	-0,084
1303,705	2	-0,57
1314,402	0	-1,002
1325,088	-1	-1,422
1335,785	-3	-2,072
1346,471	-5	-2,532
1357,162	-5,5	-2,718
1367,853	-7	-2,976
1378,551	-7,5	-3,093
1389,248	-10,5	-3,406
1399,94	-10,5	-3,431
1410,631	-12	-3,482
1421,322	-12	-3,495
1432,008	-12	-3,497
1442,699	-11,5	-3,495
1453,39	-11,5	-3,494
1464,082	-11,5	-3,494
1474,773	-11,5	-3,494
1485,477	-11,5	-3,497
1496,18	-11,5	-3,496
1506,871	-11,5	-3,494
1517,575	-11,5	-3,492
1528,272	-11,5	-3,48
1538,964	-10,5	-3,464
1549,673	-10	-3,442
1560,376	-10	-3,429
1571,074	-9,5	-3,375
1581,753	-7,5	-3,224
1592,469	-7,5	-3,184
1603,166	-7	-3,179
1613,869	-6	-3,03
1624,555	-5	-2,78
1635,252	-4,5	-2,573
1645,962	-4	-2,539
1656,671	-4,5	-2,509
1667,374	-3	-2,221
1678,072	-3	-2,202
1688,769	-3	-2,096
1699,455	-2	-1,899
1710,152	-1	-1,762
1720,843	-1	-1,675
1731,541	-1,5	-1,847
1742,244	-2	-1,876
1752,935	-1	-1,541
1763,639	-0,5	-1,295
1774,336	0	-0,859
1785,04	3	-0,206
1795,725	3	-0,001
1806,428	3	-0,005
1817,132	3	-0,012
1827,841	2,5	-0,052
1838,527	1,5	-0,239
1849,224	0	-0,769
1859,915	0	-0,959
1870,607	0	-1,119
1881,322	0	-1,3
1892,001	-1	-1,675
1902,693	-1,5	-2,087
1913,378	-4,5	-2,704
1924,064	-7,5	-3,114
1934,761	-8	-3,47
1945,458	-8	-3,5
1956,138	-8	-3,498
1966,829	-8	-3,497
1977,521	-7,5	-3,498
1988,224	-7,5	-3,497
1998,921	-7,5	-3,496
2009,607	-7,5	-3,485
2020,304	-7,5	-3,475
2030,996	-7	-3,457
2041,675	-5,5	-3,386
2052,396	-4	-3,012
2063,076	-3	-2,726
2073,773	-2	-2,33
2084,453	-1,5	-2,138
2095,144	-1	-1,832
2105,829	-1	-1,876
2116,515	-0,5	-1,545
2127,2	0	-1,195
2137,898	0	-1,184
2148,583	-0,5	-1,557
2159,256	-1	-1,863
2169,954	-2	-2,278
2180,657	-3	-2,821
2191,348	-4,5	-3,248
2202,04	-5,5	-3,355
2212,749	-6	-3,457
2223,441	-6	-3,486
2234,144	-6	-3,495
2244,835	-6	-3,498
2255,533	-6	-3,491
2266,224	-6,5	-3,232
2276,927	-5,5	-3,025
2287,625	-3,5	-2,757
2298,328	-1,5	-2,333
2309,02	-1,5	-2,175
2319,729	-0,5	-1,769
2330,421	0	-1,288
2341,118	0	-0,888
2351,809	0,5	-0,619
2362,501	1	-0,403
2373,21	1,5	-0,139
2383,907	2	-0,07
2394,593	2,5	-0,042
2405,278	2,5	-0,027
2415,988	2,5	-0,012
2426,685	2,5	-0,006
2437,376	2,5	-0,001
2448,068	2,5	-0,092
2458,753	2	-0,495
2469,451	0	-0,898
2480,142	0	-1,095
2490,821	0	-1,271
2501,513	0	-1,463
2512,216	-0,5	-1,783
2522,919	-1	-2,23
2533,599	-1,5	-2,513
2544,29	-1,5	-2,691
2554,988	-2,5	-2,841
2565,685	-3,5	-3,255
2576,388	-5	-3,452
2587,074	-5,5	-3,482
2597,765	-5,5	-3,492
2608,469	-5,5	-3,498
2619,148	-5,5	-3,499
2629,851	-4,5	-3,115
2640,549	-2,5	-2,825
2651,216	-3	-2,772
2661,908	-1,5	-2,359
2672,599	-1	-2,138
2683,302	-0,5	-1,899
2693,988	0	-1,454
2704,679	0	-1,09
2715,37	0,5	-0,708
2726,05	0,5	-0,596
2736,747	1	-0,456
2747,451	0,5	-0,494
2758,142	0,5	-0,624
2768,833	0,5	-0,58
2779,531	1	-0,39
2790,222	1,5	-0,079
2800,914	2	-0,042
2811,599	2,5	-0,02
2822,29	2,5	-0,012
2832,994	2,5	-0,018
2843,685	2,5	-0,014
2854,376	2,5	-0,026
2865,074	2,5	-0,019
2875,765	2,5	-0,016
2886,475	2,5	-0,012
2897,172	2,5	-0,005
2907,863	2,5	-0,003
2918,549	2,5	-0,006
2929,234	2,5	-0,006
2939,92	2,5	-0,009
2950,629	2,5	-0,002
2961,32	2,5	-0,001
2972,018	2,5	0
2982,709	2,5	-0,048
2993,401	2,5	-0,155
3004,092	2	-0,298
3014,783	1,5	-0,436
3025,481	1,5	-0,393
3036,16	1,5	-0,309
3046,858	2	-0,39
3057,561	0,5	-0,612
3068,24	0,5	-0,701
3078,932	0	-0,778
3089,629	0	-0,922
3100,326	0	-1,466
3111,024	0	-1,546
3121,715	-0,5	-1,837
3132,407	-0,5	-2,164
3143,098	-1	-2,523
3153,789	-1,5	-2,697
3164,487	-1	-2,592
3175,178	-1,5	-2,786
3185,882	-1,5	-2,929
3196,573	-2,5	-3,144
3202,327	2	0