File: ensaios_Ciclicos/_50perc/_4gap/entrada/_4.txt
Time (s)	Load (N)	Displacement (mm)
0	0	-0,036
10,625	0,5	-0,001
21,19	1	-0,009
31,768	1	-0,02
42,363	0,5	-0,075
52,959	0,5	-0,11
63,524	0	-0,238
74,107	0	-0,242
84,709	1	-0,094
95,31	1	-0,037
105,882	1	-0,038
116,489	1,5	-0,023
127,084	1,5	-0,012
137,686	1,5	-0,008
148,275	2	-0,005
158,858	1,5	-0,002
169,46	1,5	-0,001
180,061	1,5	-0,09
190,645	1	-0,265
201,228	1,5	-0,201
211,836	1,5	-0,214
222,443	1,5	-0,138
233,044	1,5	-0,277
243,652	2	-0,291
254,265	1,5	-0,367
264,878	1,5	-0,374
275,504	0	-0,792
286,105	-1	-0,989
296,719	0	-0,793
307,326	1	-0,572
317,909	0,5	-0,514
328,511	0	-0,71
339,106	-0,5	-0,893
349,708	-1,5	-0,999
360,303	-1,5	-1,08
370,904	-0,5	-0,921
381,488	0,5	-0,591
392,089	1,5	-0,409
402,697	1,5	-0,438
413,298	2	-0,331
423,881	2	-0,173
434,489	2	-0,036
445,09	2	-0,122
455,709	2	-0,09
466,329	1,5	-0,338
476,936	1,5	-0,394
487,544	2	-0,257
498,127	1,5	-0,365
508,729	2	-0,001
519,318	2	-0,001
529,925	2	-0,005
540,521	2	-0,008
551,098	2	-0,004
561,747	2	0
572,367	2,5	-0,266
582,956	1,5	-0,36
593,582	0	-0,716
604,207	-1,5	-1,15
614,839	-2,5	-1,559
625,452	-4	-1,9
636,047	-3,5	-1,86
646,655	-4	-1,985
657,256	-4	-2,032
667,851	-4,5	-2,103
678,447	-5,5	-2,301
689,054	-6,5	-2,612
699,65	-7,5	-2,752
710,233	-8,5	-2,991
720,834	-9	-3,071
731,448	-10	-3,194
742,043	-11,5	-3,334
752,645	-13	-3,415
763,252	-12,5	-3,426
773,865	-13	-3,439
784,473	-13	-3,462
795,062	-13,5	-3,464
805,664	-13	-3,462
816,271	-13,5	-3,479
826,884	-13,5	-3,491
837,468	-13,5	-3,491
848,075	-13,5	-3,494
858,658	-13,5	-3,495
869,272	-13,5	-3,497
879,873	-13,5	-3,498
890,481	-13,5	-3,498
901,07	-13,5	-3,499
911,677	-13,5	-3,471
922,273	-13	-3,186
932,856	-11,5	-2,972
943,452	-10,5	-2,901
954,041	-13	-3,433
964,66	-12	-3,042
975,262	-12,5	-3,102
985,857	-12,5	-3,074
996,465	-13	-3,13
1007,06	-13,5	-3,497
1017,661	-13	-3,5
1028,251	-13	-3,499
1038,834	-13	-3,499
1049,43	-13	-3,5
1060,025	-13	-3,5
1070,62	-13	-3,499
1081,21	-13	-3,499
1091,811	-13	-3,498
1102,407	-13	-3,498
1112,99	-12,5	-3,496
1123,573	-12	-3,463
1134,181	-12,5	-3,479
1144,788	-12,5	-3,485
1155,378	-12	-3,475
1165,985	-12	-3,447
1176,592	-12	-3,462
1187,194	-12	-3,479
1197,783	-12	-3,478
1208,378	-12	-3,488
1218,974	-12	-3,475
1229,575	-11,5	-3,459
1240,183	-12	-3,482
1250,784	-11,5	-3,477
1261,385	-11	-3,438
1271,993	-9,5	-3,356
1282,588	-9,5	-3,336
1293,19	-9,5	-3,33
1303,797	-8	-3,24
1314,398	-7,5	-3,169
1325	-7,5	-3,201
1335,595	-6,5	-2,932
1346,203	-6	-2,897
1356,804	-6,5	-2,933
1367,405	-5,5	-2,684
1378,013	-5,5	-2,819
1388,614	-5	-2,712
1399,216	-5	-2,756
1409,817	-4,5	-2,538
1420,406	-3,5	-2,252
1431,002	-2,5	-2,026
1441,597	-2,5	-1,794
1452,193	-1	-1,465
1462,8	-0,5	-1,304
1473,395	-0,5	-1,242
1484,003	-0,5	-1,256
1494,592	0	-0,945
1505,206	0	-0,802
1515,801	0,5	-0,663
1526,402	0	-0,712
1537,004	1,5	-0,436
1547,617	2,5	0
1558,213	2,5	-0,001
1568,808	2,5	-0,001
1579,397	2,5	-0,002
1589,999	2,5	-0,002
1600,588	2,5	-0,002
1611,189	2,5	-0,004
1621,773	2,5	-0,007
1632,368	3	-0,007
1642,958	2,5	-0,011
1653,565	2,5	-0,013
1664,166	2,5	-0,018
1674,762	2	-0,029
1685,357	2	-0,032
1695,965	2	-0,045
1706,554	2,5	-0,037
1717,161	2,5	-0,028
1727,763	2,5	-0,023
1738,364	2,5	-0,008
1748,966	2,5	-0,004
1759,567	2,5	-0,003
1770,168	2,5	-0,002
1780,764	2,5	-0,001
1791,359	2,5	-0,001
1801,949	2,5	-0,001
1812,55	2,5	-0,012
1823,139	2,5	-0,103
1833,747	2,5	-0,212
1844,348	2,5	-0,33
1854,938	2,5	-0,242
1865,533	2	-0,32
1876,134	2	-0,298
1886,736	2	-0,373
1897,343	2	-0,445
1907,951	1	-0,602
1918,552	0	-0,731
1929,147	2	-0,418
1939,743	2	-0,344
1950,344	2	-0,435
1960,945	2	-0,305
1971,541	3	-0,269
1982,142	2,5	-0,224
1992,744	2,5	-0,157
2003,345	3	-0,015
2013,946	2,5	0
2024,548	2,5	0
2035,161	2,5	-0,001
2045,775	2,5	-0,053
2056,382	2	-0,288
2066,983	2,5	-0,283
2077,573	2,5	-0,314
2088,18	2,5	-0,196
2098,788	2,5	-0,212
2109,383	2,5	-0,019
2119,99	2,5	-0,142
2130,592	2,5	-0,159
2141,193	2	-0,318
2151,795	0,5	-0,638
2162,396	1	-0,61
2172,985	0	-0,96
2183,587	0	-1,091
2194,182	0	-0,966
2204,784	0	-1,024
2215,379	0	-1,032
2225,98	0	-1,073
2236,582	0	-0,754
2247,201	1	-0,62
2257,779	2	-0,334
2268,368	2	-0,278
2278,975	2	-0,335
2289,559	2,5	-0,17
2300,154	2,5	-0,015
2310,755	2	-0,042
2321,339	2,5	0
2331,928	2,5	0
2342,524	2	-0,006
2353,131	2,5	-0,102
2363,726	2	-0,308
2374,34	2	-0,205
2384,941	2,5	-0,001
2395,543	2	-0,001
2406,156	2,5	-0,002
2416,745	2,5	-0,003
2427,335	2	-0,002
2437,93	2,5	-0,002
2448,52	2,5	-0,002
2459,121	2	-0,002
2469,722	2,5	-0,001
2480,318	2,5	-0,001
2490,919	2	-0,001
2501,533	2	-0,001
2512,128	2	-0,001
2522,729	2,5	-0,001
2533,337	2,5	-0,002
2543,938	2	-0,002
2554,54	2	-0,002
2565,153	2,5	-0,002
2575,748	2	-0,001
2586,35	2	-0,001
2596,951	2,5	-0,002
2607,547	2	-0,001
2618,148	2	-0,003
2628,725	2	-0,005
2639,333	2	-0,006
2649,934	2,5	-0,006
2660,523	2,5	-0,013
2671,119	2	-0,012
2681,72	2	-0,012
2692,31	2	-0,01
2702,899	2	-0,016
2713,5	2	-0,008
2724,078	2	-0,014
2734,649	2	-0,015
2745,245	2	-0,01
2755,846	2,5	-0,005
2766,435	2	-0,007
2777,031	2,5	-0,003
2787,638	2	-0,001
2798,24	2	-0,003
2808,835	2	-0,196
2819,442	2	-0,228
2830,032	1,5	-0,441
2840,628	1,5	-0,517
2851,217	2	-0,402
2861,812	1	-0,533
2872,413	1	-0,565
2883,003	1,5	-0,456
2893,592	1	-0,556
2904,206	0	-0,716
2914,813	0	-0,932
2925,402	0	-0,909
2935,992	0	-0,8
2946,593	0	-1,028
2957,201	0	-1,246
2967,796	0	-1,182
2978,379	0	-1,214
2988,969	0	-1,263
2999,57	0	-1,371
3010,178	0	-1,47
3020,779	0	-1,55
3031,38	-0,5	-1,639
3041,976	0	-1,46
3052,571	0	-1,334
3063,161	0	-1,374
3073,762	0	-1,034
3084,357	0	-1,105
3094,947	0	-1,129
3105,548	0	-1,112
3116,149	0	-1,181
3126,751	0	-1,356
3137,334	0	-1,462
3147,942	0	-1,461
3158,537	0	-1,175
3169,132	0	-0,942
3179,566	2	0