File: ensaios_Ciclicos/_40perc/_4gap/entrada/_1.txt
Time (s)	Load (N)	Displacement (mm)
36,225	1	-0,001
46,071	-14	-2,324
55,898	-9	-2,246
65,725	0	-0,238
75,595	-21	-3,499
85,43	-3	-1,051
95,286	-3	-0,976
105,149	-20	-3,477
115,007	1,5	-0,001
124,846	-18,5	-3,005
134,703	-4,5	-1,502
144,579	-5	-1,403
154,46	-15	-3,227
164,36	1,5	-0,019
174,247	-19,5	-3,499
220,349	2	-0,011
230,224	-19	-3,5
240,1	-2,5	-1,114
249,975	-5	-1,514
259,826	-10,5	-2,761
269,732	1	-0,108
279,619	-18,5	-3,497
289,507	1,5	-0,357
299,388	-12	-2,49
309,269	-6	-2,01
319,163	-1,5	-0,774
329,044	-17	-3,449
338,926	2	-0,004
348,801	-18	-3,5
358,671	-2	-0,996
404,856	-17,5	-3,206
414,755	-1,5	-1,098
424,643	-5	-1,73
434,518	-10,5	-2,893
444,418	1,5	-0,048
454,317	-17	-3,496
464,217	1,5	-0,346
474,098	-9	-2,347
483,998	-6	-2,104
493,891	-1	-0,678
503,778	-16	-3,458
513,666	2	-0,004
523,547	-16,5	-3,5
533,429	0	-0,799
543,31	-6,5	-1,911
553,18	-8,5	-2,682
563,067	1,5	-0,044
572,96	-17	-3,498
582,866	0	-0,687
592,747	-4	-1,522
602,635	-15	-3,42
612,516	2	-0,006
658,642	-10,5	-3,044
668,511	1,5	-0,08
678,392	-16,5	-3,496
688,286	2	-0,001
698,179	-16	-3,498
708,061	0	-0,749
717,942	-8,5	-2,206
727,824	-5,5	-2,208
737,705	1	-0,161
747,598	-16	-3,497
757,462	2	-0,009
767,337	-7,5	-2,095
777,213	-9	-2,788
787,082	2	-0,023
796,958	-15,5	-3,414
806,839	-3	-1,472
816,721	0	-0,541
826,602	-15,5	-3,49
836,471	2	-0,252
846,347	-6	-2,001
856,216	-9	-2,783
866,08	2,5	-0,028
875,949	-16	-3,5
885,813	-2	-1,281
895,682	-1	-0,91
905,569	-15	-3,473
915,445	2	-0,07
925,32	-6,5	-2,078
935,19	-7,5	-2,538
945,059	1,5	-0,054
954,935	-15,5	-3,499
964,798	-1,5	-0,936
974,673	-1,5	-1,086
984,549	-15	-3,481
994,412	2	-0,015
1004,282	-7,5	-2,174
1014,175	-7	-2,624
1024,045	1,5	-0,086
1033,908	-15	-3,496
1043,772	2	-0,245
1053,635	-6,5	-2,067
1063,486	-7,5	-2,627
1073,35	1	-0,106
1083,225	-15,5	-3,496
1093,089	2,5	-0,197
1102,964	-6,5	-2,202
1112,822	-5	-2,251
1122,679	0,5	-0,23
1168,702	-7	-2,626
1178,566	1,5	-0,078
1188,423	-15	-3,498
1198,299	0	-0,612
1208,162	-5,5	-2,001
1218,026	-6	-2,561
1227,883	1,5	-0,053
1237,758	-15	-3,497
1247,622	1,5	-0,501
1257,491	-5	-1,944
1267,373	-8,5	-2,878
1277,236	2,5	-0,02
1287,1	-15	-3,5
1296,963	-1	-1,165
1306,845	-2	-1,205
1316,72	-10,5	-3,246
1326,577	2,5	-0,014
1336,441	-15	-3,499
1346,292	-0,5	-0,757
1356,162	-3,5	-1,603
1366,025	-9	-2,942
1375,895	2	-0,035
1385,758	-15	-3,498
1395,621	0,5	-0,516
1405,503	-4,5	-1,87
1415,372	-6,5	-2,634
1425,248	2	-0,047
1435,111	-15	-3,499
1444,969	0	-0,726
1454,826	-3,5	-1,705
1464,671	-8	-2,858
1474,541	2,5	-0,03
1484,386	-15	-3,498
1494,256	0,5	-0,598
1504,113	-4,5	-1,833
1513,977	-9	-3,023
1523,846	2,5	-0,008
1533,698	-14,5	-3,17
1543,561	-2	-1,496
1553,418	-0,5	-0,881
1563,282	-13,5	-3,44
1573,139	2,5	-0,002
1582,997	-13,5	-3,012
1592,842	-3	-1,76
1602,706	-0,5	-0,743
1612,569	-14	-3,465
1622,432	2,5	-0,001
1632,302	-10	-2,671
1642,171	-4	-2,087
1652,023	0	-0,39
1661,892	-14,5	-3,49
1671,756	2	-0,001
1681,625	-7,5	-2,426
1691,483	-4	-2,052
1701,34	0	-0,442
1711,203	-14,5	-3,484
1721,073	2,5	-0,001
1730,936	-8,5	-2,546
1740,788	-3	-1,835
1750,645	-0,5	-0,819
1760,503	-12,5	-3,407
1770,36	2,5	-0,004
1816,395	-14,5	-3,494
1826,241	2	-0,269
1836,104	-5	-2,027
1845,968	-7	-2,792
1855,819	2,5	-0,019
1865,671	-14,5	-3,499
1875,546	-0,5	-0,894
1885,409	-2	-1,41
1895,267	-10	-3,249
1905,124	2,5	-0,003
1914,982	-7,5	-2,439
1924,839	-6	-2,573
1934,697	2,5	-0,013
1944,548	-13,5	-3,169
1954,405	-3,5	-1,941
1964,263	1	-0,151
1974,15	-14,5	-3,498
1984,02	-1	-1,091
1993,877	-1	-1,044
2003,747	-14	-3,481
2013,61	2	-0,058
2023,468	-4,5	-1,929
2033,331	-8,5	-3,087
2043,188	2,5	-0,007
2053,058	-12,5	-2,973
2062,915	-3	-2,013
2072,767	1	-0,184
2082,624	-14	-3,498
2092,47	0,5	-0,645
2102,333	-3,5	-1,692
2112,202	-9	-3,214
2122,06	2,5	-0,006
2131,911	-12,5	-2,989
2141,781	-3	-1,93
2151,644	0,5	-0,268
2161,502	-13,5	-3,495
2171,371	1,5	-0,39
2181,223	-5	-2,113
2191,086	-6,5	-2,862
2200,949	2,5	-0,018
2210,813	-13	-3,197
2220,676	-2,5	-1,719
2230,54	0	-0,511
2240,391	-13,5	-3,494
2250,255	0,5	-0,584
2260,118	-3,5	-1,824
2269,975	-6,5	-2,795
2279,833	2	-0,032
2289,684	-13,5	-3,498
2299,536	-1	-0,975
2309,405	-1	-1,131
2319,269	-12	-3,43
2329,132	2	-0,002
2339,001	-7,5	-2,575
2348,859	-3,5	-2,218
2394,852	-1	-1,171
2404,716	-11	-3,415
2414,567	2,5	-0,003
2424,431	-9,5	-2,817
2434,276	-3	-1,986
2444,127	0,5	-0,343
2453,991	-12	-3,489
2463,842	2,5	-0,238
2473,694	-4	-2,14
2483,551	-5	-2,553
2493,403	2	-0,067
2503,266	-12	-3,498
2513,124	2	-0,504
2522,975	-3,5	-1,978
2532,826	-5,5	-2,856
2542,684	2,5	-0,026
2552,535	-12	-3,499
2562,393	-0,5	-0,936
2572,25	-1,5	-1,431
2582,102	-6,5	-3,156
2591,959	2,5	-0,012
2601,816	-11	-3,389
2611,674	-1,5	-1,358
2621,531	-0,5	-1,238
2631,395	-9	-3,397
2641,252	2,5	-0,003
2651,11	-10	-3,086
2660,967	-1,5	-1,591
2670,825	0	-0,868
2680,682	-10,5	-3,466
2690,539	2,5	-0,001
2700,403	-5	-2,454
2710,26	-3	-2,116
2720,118	1,5	-0,248
2729,969	-10,5	-3,497
2739,827	2,5	-0,316
2749,684	-2,5	-2,05
2759,535	-4	-2,619
2769,393	1,5	-0,113
2779,238	-9	-3,494
2789,096	2,5	-0,185
2798,941	-4,5	-2,496
2808,793	-2,5	-2,102
2818,638	1	-0,389
2828,478	-9	-3,484
2838,347	2,5	-0,002
2848,192	-3	-2,426
2858,056	-2,5	-2,153
2867,919	1	-0,246
2877,771	-7,5	-3,491
2887,64	1,5	-0,493
2897,492	-0,5	-1,516
2907,355	-5,5	-3,29
2917,206	3	-0,006
2927,064	-6	-3,081
2936,909	-1,5	-1,728
2946,779	0,5	-0,67
2956,636	-7,5	-3,477
2966,488	2,5	0
2976,345	-2,5	-2,36
2986,203	-2	-2,215
2996,048	1,5	-0,16
3005,905	-7,5	-3,496
3015,757	1	-0,672
3025,608	-1	-1,768
3035,478	-5	-3,232
3045,329	2,5	-0,007
3055,181	-7,5	-3,202
3065,032	-1	-1,596
3074,889	0	-0,67
3084,741	-7,5	-3,476
3094,616	2,5	-0,058
3104,474	-2	-2,26
3114,343	-2,5	-2,502
3124,207	1,5	-0,101
3134,058	-7	-3,496
3143,922	2,5	-0,203
3153,779	-2,5	-2,378
3163,636	-1,5	-2,118
3173,494	0,5	-0,37
3183,351	-7	-3,485
3193,209	2,5	-0,001
3203,066	-4,5	-2,899
3212,582	2,5	0