File: ensaios_Ciclicos/_40perc/_4gap/entrada/_2.txt
Time (s)	Load (N)	Displacement (mm)
0	0	-0,036
10,067	-7,5	-1,298
20,02	-22,5	-3,466
29,937	1,5	0
39,873	-13,5	-2,139
49,814	-14	-2,754
59,774	1,5	-0,016
69,757	-16,5	-2,698
79,711	-9,5	-2,374
89,676	1,5	-0,042
99,635	-20,5	-3,499
109,625	-3,5	-1,158
119,578	-4	-1,123
129,544	-19,5	-3,446
139,497	2	-0,002
185,676	-19,5	-3,499
195,642	-2	-1,028
205,631	-1,5	-0,828
215,633	-19,5	-3,495
225,622	-1,5	-0,992
235,581	-3	-1,07
245,559	-19	-3,482
255,566	1,5	-0,377
265,562	-4	-1,399
275,551	-17	-3,428
285,547	2,5	0
295,524	-8,5	-2,083
305,513	-10,5	-2,806
315,497	2	-0,012
325,486	-18,5	-3,293
335,482	-4,5	-1,616
345,447	-3,5	-1,268
355,455	-16,5	-3,428
365,432	2	-0,002
375,415	-16	-2,976
385,399	-4,5	-1,752
395,382	-0,5	-0,554
405,372	-18	-3,489
415,343	2,5	0
425,327	-10,5	-2,32
435,31	-9	-2,624
445,294	2	-0,046
455,265	-18	-3,499
465,236	-1,5	-0,915
475,214	-4	-1,495
485,191	-11,5	-3,025
495,163	2,5	-0,023
505,158	-18	-3,499
515,142	0	-0,784
525,119	-5,5	-1,74
535,096	-10,5	-2,889
545,068	2	-0,036
555,045	-17,5	-3,499
565,017	-0,5	-0,83
574,994	-4	-1,461
621,209	2	-0,351
631,175	-9,5	-2,282
641,146	-7,5	-2,437
651,118	2	-0,061
661,089	-17,5	-3,499
671,061	-0,5	-0,817
681,038	-4,5	-1,667
691,003	-10	-2,87
700,981	2	-0,026
710,952	-17	-3,499
720,918	-1	-0,797
730,883	-3,5	-1,461
740,861	-14,5	-3,356
750,82	2,5	-0,003
760,786	-14,5	-2,955
770,757	-4,5	-1,899
780,704	-0,5	-0,63
790,67	-17	-3,488
800,635	2,5	0
810,625	-11	-2,511
820,602	-7	-2,526
830,567	2	-0,035
840,545	-16,5	-3,499
850,51	-0,5	-0,832
860,476	-4	-1,54
870,453	-12,5	-3,318
880,419	2,5	-0,002
890,402	-13,5	-2,911
900,368	-5	-2,076
910,339	0	-0,27
920,316	-16	-3,496
930,282	2,5	-0,147
940,247	-8	-2,22
1022,622	0,5	-0,284
1032,594	-16	-3,495
1042,565	1,5	-0,479
1052,539	-4,5	-1,728
1062,502	-10	-3,021
1072,462	2,5	-0,008
1082,415	-15	-3,189
1092,369	-3	-1,709
1102,334	0	-0,505
1112,294	-16	-3,491
1122,253	2,5	-0,194
1132,224	-5,5	-1,938
1142,19	-10	-3,05
1152,161	2,5	-0,006
1162,139	-13,5	-2,942
1172,104	-4	-1,94
1182,069	0	-0,503
1192,035	-15,5	-3,49
1202,018	2,5	-0,181
1211,984	-5,5	-1,989
1221,955	-10,5	-3,049
1231,915	2,5	-0,013
1241,874	-15,5	-3,499
1251,845	-1,5	-1
1261,817	-2	-1,249
1271,788	-14,5	-3,436
1281,754	2,5	-0,002
1291,707	-13,5	-2,915
1301,661	-3	-1,742
1311,62	-0,5	-0,698
1321,573	-15	-3,473
1331,533	2,5	-0,001
1341,486	-11	-2,638
1351,464	-4,5	-2,063
1361,425	0,5	-0,294
1371,389	-15	-3,486
1381,342	2,5	-0,001
1391,307	-11,5	-2,69
1401,273	-3,5	-1,892
1411,226	-0,5	-0,759
1421,198	-14	-3,425
1431,169	2,5	-0,009
1441,129	-15	-3,499
1451,082	1,5	-0,425
1461,035	-8,5	-2,386
1470,989	-3	-1,642
1480,942	-2	-1,179
1490,908	-10,5	-3,181
1500,861	2,5	-0,038
1510,821	-15	-3,497
1520,786	2,5	-0,138
1530,751	-8,5	-2,408
1540,706	-4,5	-2,201
1550,676	0,5	-0,298
1560,648	-15	-3,492
1570,607	3	-0,004
1580,567	-9	-2,49
1590,532	-4,5	-2,202
1600,486	1	-0,186
1610,427	-15	-3,498
1620,38	0	-0,713
1630,34	-2,5	-1,543
1640,293	-10,5	-3,173
1650,259	3	-0,004
1660,218	-14	-3,141
1670,177	-2,5	-1,483
1680,143	0	-0,7
1690,096	-15	-3,493
1700,05	3	-0,173
1710,009	-5,5	-2,162
1719,963	-6	-2,595
1729,928	2	-0,05
1739,882	-15	-3,499
1749,841	0	-0,833
1759,788	-2,5	-1,488
1769,73	-8	-2,891
1779,677	2,5	-0,021
1789,631	-15	-3,499
1799,566	-1,5	-1,252
1809,514	-1	-0,904
1819,467	-14,5	-3,479
1829,42	2,5	-0,001
1839,368	-9,5	-2,627
1849,321	-4,5	-2,232
1859,269	2	-0,064
1869,222	-14,5	-3,499
1879,17	-1,5	-1,366
1889,123	0	-0,45
1899,076	-14,5	-3,494
1909,024	1	-0,546
1918,965	-4	-1,852
1928,949	-10	-3,233
1938,896	3	-0,003
1948,844	-9,5	-2,636
1958,791	-5	-2,422
1968,75	2	-0,031
1978,698	-14,5	-3,5
1988,651	-2,5	-1,546
1998,605	-0,5	-0,75
2008,552	-14	-3,483
2018,5	3	-0,052
2028,453	-4,5	-1,993
2038,4	-7	-2,804
2048,354	2,5	-0,02
2058,301	-13,5	-3,5
2068,255	-1,5	-1,239
2078,202	-1	-1,119
2088,156	-13,5	-3,466
2098,109	2,5	-0,001
2144,198	-13	-3,488
2154,152	3	-0,002
2164,105	-4	-2,084
2174,047	-6	-2,731
2184	3	-0,015
2193,954	-13	-3,489
2203,901	-1,5	-1,395
2213,854	0	-0,752
2223,802	-12,5	-3,474
2233,749	3	0
2243,697	-6	-2,396
2253,644	-4	-2,294
2263,592	1	-0,145
2273,545	-12,5	-3,496
2283,492	2,5	-0,353
2293,44	-5	-2,222
2303,393	-5	-2,604
2313,347	1,5	-0,053
2323,294	-12,5	-3,499
2333,248	-0,5	-0,984
2343,201	-1,5	-1,446
2353,148	-8,5	-3,221
2363,084	3	-0,012
2373,031	-12	-3,5
2382,979	-1	-1,13
2392,92	-1	-1,233
2402,862	-10	-3,403
2412,815	3	-0,003
2422,769	-9,5	-2,916
2432,704	-2,5	-1,784
2442,663	0	-0,578
2452,611	-11,5	-3,472
2462,552	3	-0,001
2472,506	-6,5	-2,559
2482,459	-2,5	-1,758
2492,406	0	-1,014
2502,36	-10,5	-3,391
2512,313	3	-0,006
2522,261	-12	-3,486
2532,208	-1,5	-1,479
2542,156	0	-0,815
2552,109	-11,5	-3,483
2562,063	2,5	-0,191
2572,016	-4	-2,195
2581,963	-5	-2,634
2591,917	3	-0,025
2601,864	-11,5	-3,499
2611,812	0	-0,747
2621,759	-1,5	-1,609
2631,713	-7	-3,061
2641,66	2,5	-0,018
2651,607	-11,5	-3,499
2661,555	-0,5	-0,901
2671,508	-2	-1,735
2681,45	-5,5	-2,76
2691,397	2	-0,074
2701,339	-11,5	-3,497
2711,286	-0,5	-0,856
2721,233	-1	-1,431
2731,187	-8,5	-3,277
2741,134	3	-0,005
2751,082	-11	-3,243
2761,023	-1,5	-1,4
2770,971	0	-0,494
2780,918	-10,5	-3,494
2790,871	1,5	-0,572
2800,819	-1,5	-1,461
2810,772	-8,5	-3,372
2820,726	3	-0,002
2830,673	-7,5	-2,834
2840,615	-2,5	-2,087
2850,568	0,5	-0,326
2860,503	-10,5	-3,496
2870,451	1,5	-0,475
2880,392	-2,5	-1,859
2890,334	-5	-2,833
2900,281	2,5	-0,014
2910,235	-10,5	-3,5
2920,176	0	-0,901
2930,123	-1	-1,553
2940,071	-7,5	-3,382
2950,012	2,5	0
2959,96	-2,5	-2,138
3006,031	-0,5	-0,918
3015,985	0	-1,011
3025,932	-8,5	-3,467
3035,879	2,5	-0,026
3045,827	-1,5	-1,939
3055,774	-4,5	-2,933
3065,716	2,5	-0,018
3111,787	-6,5	-3,369
3121,735	2,5	-0,002
3131,688	-4,5	-2,688
3141,635	-2	-2,284
3151,583	2,5	-0,054
3161,524	-8	-3,42
3171,478	-1	-1,631
3181,425	1	-0,207
3191,379	-8	-3,499
3201,332	0	-0,966
3211,291	0	-0,922
3221,239	-8	-3,484
3231,198	2	-0,296
3235,374	2,5	-0,001