File: ensaios_Ciclicos/_40perc/_4gap/entrada/_4.txt
Time (s)	Load (N)	Displacement (mm)
36,363	-16,5	-3,057
45,83	-2,5	-0,702
55,299	-14,5	-2,716
64,783	-2	-0,666
74,281	-15	-3,206
83,766	0,5	-0,114
93,264	-20	-3,424
102,767	1	-0,087
112,272	-20,5	-3,468
121,762	2	-0,01
131,266	-21	-3,497
140,769	2	-0,084
186,6	2	-0,014
196,116	-20	-3,498
205,649	2	-0,126
215,189	-15,5	-2,768
224,71	-3	-1,211
234,238	-8,5	-1,964
243,771	-6,5	-2,045
253,305	-3	-1,129
262,796	-9,5	-2,59
272,317	-1	-0,724
281,815	-12	-2,966
291,33	0,5	-0,227
300,858	-19	-3,469
310,373	2,5	-0,012
319,889	-19,5	-3,497
365,72	-13,5	-3,086
375,248	1	-0,156
384,757	-18,5	-3,459
394,267	2,5	-0,018
403,776	-19	-3,494
413,291	2,5	-0,002
422,789	-19	-3,499
432,31	1,5	-0,5
441,814	-14	-2,754
451,311	-2	-1,006
460,799	-10,5	-2,364
470,306	-4	-1,634
479,804	-6	-1,858
489,313	-4,5	-1,734
498,805	-7,5	-2,034
508,308	-3,5	-1,39
517,811	-7	-2,062
527,297	-3,5	-1,447
536,8	-6,5	-1,92
655,042	2,5	-0,02
664,527	-18	-3,491
674,019	2,5	-0,008
683,516	-17,5	-3,493
693,013	3	-0,002
702,487	-17,5	-3,499
711,984	2,5	-0,001
721,476	-17,5	-3,315
730,979	-1	-0,816
740,459	-10	-2,394
749,944	-3,5	-1,581
759,442	-2,5	-1,172
768,927	-10,5	-3,032
778,413	1,5	-0,099
787,904	-17	-3,482
797,389	2,5	-0,003
806,875	-17,5	-3,499
816,366	2,5	-0,32
825,858	-11,5	-2,605
835,343	-3,5	-1,615
844,841	-3,5	-1,543
854,326	-10	-2,881
863,818	0	-0,52
945,713	-3,5	-1,721
955,192	-1,5	-1,042
964,684	-13,5	-3,298
974,169	2,5	-0,022
983,655	-16,5	-3,498
993,134	0	-0,701
1002,62	-7	-2,208
1012,099	-4,5	-1,966
1021,579	-0,5	-0,898
1031,058	-13	-3,314
1040,55	2,5	-0,026
1050,035	-16,5	-3,494
1059,527	2,5	-0,002
1069,012	-14	-2,974
1078,497	-2,5	-1,257
1087,977	-3	-1,42
1097,468	-8,5	-2,786
1106,942	2	-0,046
1116,427	-16,5	-3,497
1125,925	2,5	-0,335
1135,41	-8,5	-2,323
1144,896	-3	-1,6
1154,375	-2,5	-1,27
1163,843	-9,5	-2,998
1173,328	0,5	-0,299
1182,813	-15,5	-3,468
1192,305	2,5	-0,004
1201,778	-16,5	-3,499
1211,264	0	-0,691
1220,749	-6	-2,04
1230,223	-5,5	-2,266
1239,708	0	-0,645
1249,194	-14	-3,4
1258,673	2,5	-0,013
1268,159	-16,5	-3,498
1277,638	2,5	-0,264
1287,111	-14	-2,926
1296,573	-1	-0,934
1306,058	-6,5	-2,159
1315,538	-3,5	-1,728
1325,011	-2	-1,24
1334,479	-7,5	-2,655
1343,952	0	-0,701
1353,432	-12	-3,272
1362,911	2	-0,068
1372,379	-15,5	-3,476
1381,858	2,5	-0,024
1391,332	-16	-3,496
1400,817	2,5	-0,016
1410,29	-15	-3,154
1419,77	-0,5	-0,783
1429,255	-7,5	-2,3
1438,735	-3	-1,708
1448,22	-4	-1,714
1457,7	-5,5	-2,341
1467,167	0	-0,705
1476,659	-14	-3,396
1486,132	2,5	-0,027
1495,606	-15,5	-3,49
1505,079	3	-0,002
1514,565	-16	-3,45
1524,05	3	-0,06
1533,535	-13	-2,9
1543,009	-1,5	-0,968
1552,482	-5	-2,01
1561,962	-5,5	-2,296
1571,447	0	-0,67
1580,915	-9,5	-3,092
1590,394	1,5	-0,068
1599,88	-15,5	-3,489
1609,359	3	-0,002
1618,845	-15,5	-3,466
1628,324	2,5	-0,276
1637,809	-15,5	-3,206
1647,283	0	-0,812
1656,762	-5,5	-2,062
1666,248	-3	-1,61
1675,715	-4,5	-1,876
1685,201	-5	-2,354
1694,68	0	-0,605
1704,166	-12	-3,346
1713,645	2,5	-0,03
1723,119	-15	-3,494
1732,592	3	-0,002
1742,065	-15	-3,47
1751,539	1	-0,562
1761,03	-7	-2,294
1770,498	-3	-1,84
1779,965	-1,5	-1,089
1789,439	-9	-2,982
1798,918	2,5	-0,044
1808,398	-15	-3,492
1817,877	3	-0,001
1827,345	-14	-3,054
1836,824	-1,5	-1,175
1846,292	-4,5	-1,792
1855,765	-5	-2,336
1865,238	0	-0,339
1874,706	-15	-3,469
1884,173	3	-0,003
1893,635	-15	-3,309
1903,108	-0,5	-0,799
1912,588	-4,5	-1,859
1922,067	-5	-2,347
1931,535	-0,5	-0,75
1940,996	-10	-3,031
1950,47	2	-0,073
1959,949	-15	-3,487
1969,422	3	-0,003
1978,896	-15	-3,5
1988,363	0	-0,649
1997,843	-6,5	-2,268
2007,316	-3,5	-1,861
2016,802	0	-0,662
2026,287	-14,5	-3,445
2035,767	3	-0,018
2045,234	-15	-3,496
2054,702	3	-0,238
2064,175	-7	-2,298
2073,661	-4,5	-2,279
2083,134	0,5	-0,221
2092,607	-15	-3,49
2102,087	3	-0,138
2111,56	-7,5	-2,328
2121,034	-4	-2,077
2130,501	0	-0,564
2139,987	-15	-3,467
2149,46	3	-0,002
2158,94	-15	-3,498
2168,407	-1	-0,971
2177,887	-3	-1,68
2187,354	-4,5	-2,401
2196,834	1	-0,16
2206,313	-15	-3,489
2215,786	3	-0,016
2225,26	-15	-3,301
2234,721	-1	-1,041
2244,201	-3	-1,725
2253,674	-3,5	-2,073
2263,142	0	-0,793
2272,621	-8,5	-2,94
2282,101	0	-0,584
2291,58	-13,5	-3,426
2301,06	3	-0,006
2310,521	-15	-3,5
2319,994	0	-0,585
2329,456	-5,5	-2,099
2338,935	-4,5	-2,268
2348,403	1	-0,194
2357,87	-15	-3,484
2367,344	3	-0,002
2376,817	-15	-3,498
2386,291	2,5	-0,001
2395,746	-12	-2,923
2405,22	-2	-1,397
2414,699	-1,5	-1,205
2424,167	-9,5	-3,12
2433,646	2,5	-0,032
2443,12	-14,5	-3,498
2452,599	2,5	-0,368
2462,066	-6	-2,353
2471,552	-3,5	-2,047
2481,025	0	-0,692
2490,505	-9,5	-3,148
2499,972	2	-0,074
2509,44	-14,5	-3,49
2518,913	3	-0,004
2528,375	-14,5	-3,499
2537,854	3	-0,054
2547,327	-8	-2,562
2556,807	-2,5	-1,756
2566,274	-0,5	-0,875
2575,754	-10,5	-3,343
2585,227	2,5	-0,009
2594,689	-14,5	-3,268
2604,168	-1	-1,153
2613,642	-6	-2,299
2623,121	-2	-1,626
2632,595	-1	-1,295
2642,062	-5,5	-2,601
2651,53	0	-0,272
2661,009	-13,5	-3,461
2670,47	2,5	-0,009
2679,938	-14,5	-3,499
2689,411	3	-0,059
2698,879	-14	-3,206
2708,358	3	0
2717,832	-14,5	-3,345
2727,293	3	-0,143
2736,773	-14	-3,231
2746,246	3	-0,238
2755,714	-14	-3,262
2765,181	3	-0,285
2774,643	-14	-3,27
2784,122	-0,5	-0,95
2793,595	-3,5	-1,875
2803,093	-3,5	-2,144
2812,554	-0,5	-0,93
2822,034	-9,5	-3,224
2831,501	2	-0,064
2840,981	-13,5	-3,468
2850,454	3	-0,019
2859,928	-14	-3,496
2869,401	2,5	-0,001
2878,875	-14	-3,315
2888,348	1,5	-0,496
2897,821	-14	-3,284
2907,295	1,5	-0,517
2916,756	-8,5	-2,68
2926,23	-2	-1,459
2935,697	-2,5	-1,714
2945,177	-5	-2,39
2954,644	-0,5	-0,949
2964,118	-7,5	-2,962
2973,591	1	-0,249
2983,053	-12	-3,422
2992,532	3	-0,03
3002,005	-13,5	-3,486
3011,473	3	-0,005
3020,952	-13,5	-3,499
3030,42	3	-0,022
3039,887	-13	-3,234
3049,367	-0,5	-0,788
3058,84	-5,5	-2,291
3068,314	-2	-1,618
3077,787	-2,5	-1,683
3087,243	-2,5	-1,96
3096,71	-1,5	-1,426
3106,178	-4	-2,417
3115,645	0	-0,938
3125,118	-4,5	-2,7
3128,772	3	-0,001