File: ensaios_Ciclicos/_60perc/_3gap/entrada/_1.txt
Time (s)	Load (N)	Displacement (mm)
36,177	-10,5	-3,018
45,71	1	-0,057
55,25	-15	-3,488
64,795	1	-0,002
74,364	-15	-3,476
83,928	0	-0,51
93,479	-9,5	-2,407
103,043	-3,5	-1,457
112,624	-4	-1,504
122,206	-7	-2,47
131,769	-1	-0,85
141,333	-8	-2,822
223,246	1,5	-0,001
232,815	-13,5	-3,499
242,391	1,5	-0,046
251,966	-13	-3,208
261,554	0	-0,64
271,135	-7,5	-2,477
280,723	-2	-1,188
290,34	-4,5	-1,778
299,922	-3	-1,666
309,497	-3	-1,446
319,108	-5	-2,458
328,69	0	-0,613
338,277	-9	-3,138
347,853	0,5	-0,198
357,422	-12	-3,461
439,546	-10,5	-3,384
449,127	1,5	-0,043
458,708	-12	-3,474
468,296	1,5	-0,015
477,877	-12,5	-3,493
487,471	1,5	-0,003
497,07	-12	-3,499
506,646	1,5	-0,305
516,239	-7,5	-2,582
525,839	-1,5	-1,219
535,426	-3,5	-1,833
545,014	-3,5	-2,131
554,595	0	-0,823
564,176	-7	-2,919
573,758	0,5	-0,161
583,339	-11,5	-3,442
592,927	1,5	-0,011
602,52	-12	-3,498
612,102	1,5	-0,001
694,117	0	-0,352
703,71	-11	-3,446
713,28	1,5	-0,008
722,849	-12	-3,499
732,431	1,5	0
742,012	-11	-3,085
751,606	0	-0,726
761,187	-4,5	-2,088
770,769	-2,5	-1,776
780,344	-1,5	-1,419
789,926	-4	-2,141
799,507	-0,5	-0,822
809,088	-6,5	-2,994
818,658	1	-0,189
828,233	-8,5	-3,305
837,797	1,5	-0,09
847,372	-11	-3,472
856,954	1,5	-0,008
866,535	-11,5	-3,498
876,105	1,5	-0,002
885,686	-11,5	-3,456
895,262	1	-0,536
904,849	-7,5	-2,565
914,418	-1,5	-1,239
923,988	-3	-1,753
933,581	-3,5	-2,219
943,163	-0,5	-0,804
952,726	-5,5	-2,853
962,29	0	-0,263
971,871	-10,5	-3,429
981,465	1,5	-0,022
991,034	-11	-3,486
1000,609	1,5	-0,004
1010,197	-11	-3,499
1055,932	-1,5	-1,478
1065,502	-2	-1,519
1075,089	-4	-2,354
1084,671	0	-0,616
1094,252	-7,5	-3,283
1103,822	1,5	-0,052
1113,397	-10,5	-3,484
1122,973	1,5	-0,003
1132,554	-11	-3,5
1142,123	1,5	-0,276
1151,693	-8,5	-2,815
1161,262	-1,5	-1,324
1170,838	-2,5	-1,591
1180,401	-3,5	-2,29
1189,977	0	-0,465
1199,552	-9	-3,395
1209,122	1,5	-0,016
1218,703	-10,5	-3,497
1228,272	1,5	-0,001
1237,836	-10	-3,195
1247,399	0	-0,624
1256,963	-6	-2,514
1266,526	-1,5	-1,34
1276,102	-2	-1,522
1285,665	-4	-2,359
1295,229	0	-0,689
1304,798	-7,5	-3,262
1314,38	1,5	-0,051
1323,955	-10,5	-3,485
1333,531	1,5	-0,003
1343,1	-10,5	-3,499
1352,663	1,5	-0,118
1362,227	-10	-2,957
1371,796	-0,5	-0,932
1381,36	-4,5	-2,222
1390,929	-2	-1,779
1400,481	-1	-1,234
1410,044	-4,5	-2,534
1419,602	0	-0,55
1429,165	-8	-3,335
1438,74	1,5	-0,058
1448,322	-10,5	-3,485
1457,891	1,5	-0,003
1467,461	-10,5	-3,5
1477,036	1	-0,45
1486,606	-5,5	-2,446
1496,175	-1,5	-1,396
1505,739	-2,5	-1,718
1515,308	-2	-1,902
1524,878	-0,5	-1,054
1534,435	-5	-2,77
1543,992	0	-0,4
1553,562	-9	-3,412
1563,131	1,5	-0,014
1572,695	-10,5	-3,496
1582,258	1,5	-0,002
1591,81	-10,5	-3,5
1601,379	1,5	-0,317
1610,943	-6,5	-2,619
1620,512	-1	-1,324
1630,076	-2,5	-1,698
1639,645	-2,5	-2,036
1649,208	-0,5	-1,066
1658,76	-4,5	-2,579
1668,311	0	-0,539
1677,875	-7,5	-3,288
1687,438	1,5	-0,051
1697,014	-10,5	-3,49
1706,577	1,5	-0,002
1716,147	-10,5	-3,394
1725,716	0,5	-0,566
1735,28	-5	-2,349
1744,849	-1,5	-1,688
1754,4	-0,5	-1,224
1763,964	-5	-2,756
1773,533	0,5	-0,166
1783,103	-9	-3,427
1792,666	2	-0,012
1802,212	-10	-3,495
1811,775	1,5	-0,002
1821,339	-10	-3,5
1830,908	1,5	-0,443
1840,471	-6,5	-2,614
1850,041	-1	-1,22
1859,604	-2,5	-1,744
1869,174	-3	-2,262
1878,737	0	-0,785
1888,295	-5,5	-2,949
1897,87	1,5	-0,091
1907,434	-8,5	-3,402
1916,991	1,5	-0,018
1926,549	-10	-3,491
1936,124	2	-0,002
1945,693	-10	-3,321
1955,263	1	-0,605
1964,826	-5	-2,448
1974,402	-1	-1,545
1983,983	-1,5	-1,398
1993,535	-3	-2,332
2003,098	0	-0,668
2012,65	-7	-3,268
2022,231	1,5	-0,055
2031,795	-9,5	-3,488
2041,364	2	-0,002
2050,933	-10	-3,445
2060,503	0	-0,602
2070,073	-4	-2,118
2079,63	-1,5	-1,605
2089,181	-1	-1,281
2098,739	-4,5	-2,707
2108,308	1	-0,151
2117,872	-8,5	-3,444
2127,435	2	-0,011
2136,987	-9,5	-3,496
2146,55	1,5	-0,001
2156,107	-9,5	-3,461
2165,671	0,5	-0,552
2175,24	-5	-2,588
2184,816	-1	-1,325
2194,373	-2	-1,748
2203,943	-2,5	-2,12
2213,506	0	-0,828
2223,07	-5,5	-3,063
2232,639	1	-0,098
2242,197	-9	-3,478
2251,766	1,5	-0,004
2261,323	-9,5	-3,499
2270,887	1,5	-0,213
2280,45	-5,5	-2,72
2290,014	-1	-1,224
2299,559	-2	-1,783
2309,117	-2	-2,057
2318,674	0	-0,99
2328,25	-4,5	-2,93
2337,801	0,5	-0,177
2347,365	-9	-3,461
2356,922	2	-0,006
2366,479	-9	-3,498
2376,049	1,5	0
2385,618	-7,5	-2,893
2395,17	0	-0,736
2404,739	-3	-2,144
2414,291	-1,5	-1,719
2423,854	-1	-1,378
2433,412	-3	-2,398
2442,969	0	-0,728
2452,527	-6	-3,245
2462,084	1,5	-0,05
2471,641	-9	-3,482
2481,193	1,5	-0,003
2490,768	-9,5	-3,492
2500,326	1,5	-0,251
2509,883	-5,5	-2,665
2519,441	-0,5	-1,105
2528,998	-2	-1,903
2538,562	-1,5	-1,896
2548,119	0	-0,969
2557,683	-5,5	-3,177
2567,246	1	-0,108
2576,797	-9	-3,48
2586,343	1,5	-0,008
2595,882	-9	-3,499
2605,44	1,5	-0,161
2614,997	-8	-2,894
2624,555	0	-0,778
2634,118	-3	-2,209
2643,682	-1,5	-1,831
2653,227	0	-0,99
2662,79	-5	-2,986
2672,354	1,5	-0,041
2681,929	-8,5	-3,498
2691,511	2	-0,031
2701,068	-7,5	-3,032
2710,638	0	-0,842
2720,195	-3	-2,327
2729,759	0	-0,756
2739,322	-4	-2,505
2748,892	-0,5	-1,384
2758,443	-2	-2,033
2768	-0,5	-1,014
2777,75	-0,5	-1,274
2787,385	-3,5	-2,69
2796,955	0,5	-0,34
2806,536	-6,5	-3,394
2816,094	1,5	-0,052
2825,699	-8	-3,493
2835,479	0	-0,919
2845,348	0	-0,376
2855,188	-8	-3,499
2865,105	-1,5	-1,947
2875,064	2	-0,004
2884,754	-5	-2,808
2894,305	-0,5	-1,282
2904,145	0,5	-0,215
2913,936	-7,5	-3,498
2923,62	1	-0,576
2933,597	0,5	-0,189
2943,316	-7	-3,496
2952,886	1,5	-0,001
2962,683	-1,5	-1,878
2972,739	-7	-3,492
2982,656	-0,5	-1,217
2992,22	-1	-1,598
3001,777	-1,5	-1,944
3011,353	0	-0,948
3021,042	-4	-3,206
3030,605	0,5	-0,233
3040,163	-3,5	-3,203
3049,936	1,5	-0,008
3059,644	-6	-3,499
3069,477	0	-0,598
3079,125	-1,5	-2,179
3088,748	-1,5	-1,926
3098,522	0,5	-0,266
3108,373	-6	-3,499
3118,098	0	-0,974
3128,154	1	-0,082
3138,035	-5,5	-3,217
3147,821	-1	-1,776
3157,48	0	-0,969
3162,226	1,5	-0,001