File: ensaios_Ciclicos/_60perc/_3gap/entrada/_2.txt
Time (s)	Load (N)	Displacement (mm)
108,438	-1	-0,715
113,074	1,5	-0,002
117,717	-2,5	-1,312
122,368	-10	-3,18
127,011	-14	-3,499
131,673	-5,5	-1,944
136,322	1	-0,089
140,972	1,5	-0,176
145,616	-5	-2,126
150,272	-13,5	-3,472
154,921	-13	-3,119
159,571	-2	-1,096
164,227	1,5	-0,009
168,883	-0,5	-0,877
173,544	-8	-2,885
178,206	-13,5	-3,498
291,569	-13	-3,498
296,245	-5,5	-2,074
300,911	0,5	-0,19
305,567	1,5	-0,003
310,246	-3,5	-1,962
314,92	-12,5	-3,474
319,57	-12,5	-3,13
324,232	-2,5	-1,298
328,905	1,5	-0,015
333,567	-0,5	-0,876
338,229	-7	-2,818
342,903	-12,5	-3,498
347,576	-5	-1,96
352,25	1	-0,084
356,924	1	-0,427
361,586	-5	-2,407
474,985	-4,5	-2,364
479,653	-12	-3,49
484,302	-9	-2,736
488,976	-0,5	-0,814
493,65	1,5	-0,004
498,312	-1,5	-1,217
502,973	-7,5	-3,043
507,629	-12	-3,498
512,309	-5,5	-2,243
516,983	0	-0,351
521,638	1,5	-0,001
526,318	-2	-1,577
530,968	-9,5	-3,307
535,617	-12	-3,498
540,261	-6,5	-2,354
544,929	0	-0,459
549,591	1,5	-0,002
554,246	-1,5	-1,24
558,908	-8	-3,135
563,576	-12	-3,498
568,238	-7,5	-2,489
572,899	-0,5	-0,748
577,567	1,5	-0,004
582,229	-1,5	-1,119
586,885	-7	-2,878
591,546	-12	-3,498
596,22	-5,5	-2,297
600,876	0	-0,484
605,55	1,5	-0,001
610,211	-2	-1,412
614,873	-8,5	-3,231
764,342	-1,5	-1,525
769,007	-10	-3,41
773,66	-10,5	-3,5
778,322	-2,5	-1,68
782,983	1,5	-0,066
787,633	1,5	-0,248
792,295	-3,5	-2,237
796,963	-11	-3,483
801,618	-9	-2,875
806,274	-1	-1,036
810,93	1,5	-0,005
815,58	-1	-1,094
820,235	-6,5	-3,018
824,915	-11	-3,499
829,565	-5	-2,129
834,22	0	-0,249
838,882	1,5	-0,001
843,532	-2	-1,578
848,194	-9,5	-3,417
852,849	-11	-3,486
857,505	-2	-1,518
862,161	1,5	-0,035
866,817	1	-0,38
871,472	-3,5	-2,289
876,14	-11	-3,484
880,784	-10	-3
885,446	-0,5	-1,067
890,095	2	-0,012
894,751	0	-0,786
899,395	-4,5	-2,613
904,056	-11	-3,495
908,718	-6,5	-2,478
913,368	0	-0,6
918,024	1,5	-0,002
922,685	-1,5	-1,377
927,353	-7,5	-3,244
932,003	-11	-3,499
936,659	-3,5	-1,927
941,314	1	-0,113
945,964	1,5	-0,243
950,608	-3	-2,046
955,275	-11	-3,482
959,931	-10	-2,998
964,575	-0,5	-1,016
969,243	1,5	-0,005
973,886	-1,5	-1,314
1304,012	-1,5	-1,443
1308,667	-8,5	-3,35
1313,317	-10,5	-3,486
1317,979	-1	-1,39
1322,635	1,5	-0,021
1327,29	0	-0,79
1331,94	-5	-2,744
1336,59	-10,5	-3,496
1341,245	-5,5	-2,437
1345,895	0	-0,5
1350,539	1,5	-0,001
1355,183	-1,5	-1,672
1359,838	-9,5	-3,417
1364,488	-10,5	-3,318
1369,138	-1	-1,264
1373,794	1,5	-0,012
1378,437	-1	-1,042
1383,081	-5,5	-2,912
1387,737	-10,5	-3,498
1392,387	-3,5	-1,986
1397,048	0,5	-0,161
1401,692	1,5	-0,015
1406,336	-2,5	-1,918
1410,985	-10	-3,465
1415,635	-10	-3,152
1420,285	-1	-1,098
1424,935	1,5	-0,008
1429,584	-1	-1,216
1434,234	-6,5	-3,177
1438,878	-10,5	-3,499
1443,522	-3	-1,844
1556,603	1,5	-0,033
1561,247	-0,5	-1,007
1565,897	-5	-2,893
1570,546	-10,5	-3,498
1575,202	-3,5	-2,081
1579,852	0,5	-0,212
1584,508	1,5	0
1589,151	-2	-1,871
1593,801	-10	-3,451
1598,451	-10	-3,222
1603,112	-1	-1,238
1607,768	1,5	-0,017
1612,418	0	-0,717
1617,068	-4,5	-2,683
1621,723	-10	-3,495
1626,379	-5	-2,47
1631,029	0	-0,588
1635,679	1,5	-0,002
1640,328	-1	-1,423
1644,978	-7,5	-3,306
1649,634	-10	-3,5
1654,284	-1,5	-1,648
1658,933	1,5	-0,036
1663,589	1	-0,637
1668,245	-4,5	-2,678
1672,889	-10	-3,494
1677,544	-5,5	-2,533
1682,194	0	-0,654
1686,862	2	-0,001
1691,511	-1,5	-1,502
1696,157	-8	-3,35
1700,799	-10	-3,499
1705,467	-2,5	-1,8
1710,122	1	-0,081
1714,778	1,5	-0,342
1719,44	-3	-2,367
1724,09	-10	-3,49
1728,739	-6	-2,568
1733,383	0	-0,666
1738,027	1,5	-0,002
1742,671	-1	-1,336
1747,314	-6,5	-3,151
1751,958	-10	-3,499
1756,608	-2,5	-1,899
1761,251	1	-0,128
1765,901	1,5	-0,116
1770,557	-2	-1,941
1775,261	-10	-3,486
1779,904	-6,5	-2,725
1784,56	0	-0,746
1789,216	2	-0,002
1793,872	-1	-1,475
1798,521	-7	-3,278
1803,171	-10	-3,5
1807,833	-1	-1,485
1812,483	1,5	-0,034
1817,138	0	-0,665
1821,788	-4,5	-2,602
1826,438	-10,5	-3,496
1831,099	-5	-2,309
1835,749	0	-0,373
1840,393	1,5	-0,001
1845,049	-1,5	-1,77
1849,704	-9,5	-3,448
1854,354	-10	-3,254
1858,998	-1	-1,309
1863,642	1,5	-0,019
1868,291	0	-0,756
1872,941	-4	-2,725
1877,591	-10	-3,497
1882,241	-3	-1,939
1886,89	1	-0,092
1891,546	1	-0,425
1896,19	-3,5	-2,477
1900,851	-10	-3,494
1905,501	-5	-2,479
1910,151	0	-0,564
1914,807	2	-0,001
2027,912	-0,5	-1,087
2032,568	-4,5	-2,922
2037,212	-9,5	-3,496
2041,861	-4	-2,31
2046,511	0	-0,496
2051,155	1,5	-0,002
2055,805	-1	-1,5
2060,454	-7	-3,311
2065,122	-9,5	-3,5
2069,772	-2	-1,733
2074,416	1	-0,126
2079,065	1,5	-0,019
2083,715	-2	-1,906
2088,359	-8,5	-3,439
2093,014	-9,5	-3,253
2097,658	-1	-1,334
2102,314	1,5	-0,024
2106,958	0,5	-0,622
2111,607	-3,5	-2,527
2116,257	-9,5	-3,494
2120,907	-4,5	-2,508
2125,563	0	-0,633
2130,218	1,5	-0,003
2134,862	-1	-1,271
2139,512	-5,5	-3,101
2144,168	-9,5	-3,499
2148,823	-2	-1,89
2153,467	1	-0,108
2158,117	1,5	-0,18
2162,772	-2,5	-2,134
2167,422	-9	-3,474
2280,516	-2,5	-2,279
2285,154	-8,5	-3,481
2289,809	-8	-2,974
2294,459	-0,5	-1,205
2299,109	1,5	-0,014
2303,752	0	-0,64
2308,396	-3	-2,387
2313,04	-8,5	-3,489
2317,696	-5	-2,706
2322,345	0	-0,696
2327,001	1,5	-0,002
2331,651	-1	-1,38
2336,301	-5,5	-3,255
2340,95	-8,5	-3,499
2345,6	-1	-1,506
2350,244	1,5	-0,04
2354,9	1	-0,551
2359,549	-3	-2,525
2364,193	-8,5	-3,492
2368,849	-4,5	-2,526
2373,522	0	-0,47
2378,214	1,5	0
2382,87	-1,5	-1,854
2387,52	-7,5	-3,443
2573,011	-1,5	-1,992
2577,661	-8	-3,456
2582,311	-8,5	-3,263
2586,954	-0,5	-1,439
2591,604	1,5	-0,032
2596,254	0,5	-0,586
2600,963	-3,5	-2,818
2713,949	-2,5	-2,321
2718,593	-7,5	-3,491
2723,237	-4,5	-2,654
2727,88	0	-0,71
2732,524	1,5	-0,002
2737,174	-1	-1,509
2741,811	-6	-3,358
2746,461	-7,5	-3,47
2931,617	-2,5	-2,246
2936,26	0	-0,435
2940,904	1,5	-0,001
2945,554	-1	-1,703
2950,204	-5,5	-3,376
2954,847	-7,5	-3,499
2959,491	-1	-1,833
2964,135	1	-0,134
3185,444	-0,5	-1,854
3190,088	1	-0,117
3194,738	1	-0,426
3199,381	-1,5	-2,439
3200,995	1,5	-0,001