File: ensaios_Ciclicos/_60perc/_3gap/entrada/_3.txt
Time (s)	Load (N)	Displacement (mm)
0	-0,5	-0,026
10,473	0	-0,001
20,913	0	-0,002
31,364	0,5	-0,003
41,822	0,5	-0,004
52,285	0,5	-0,007
62,73	0,5	-0,011
73,194	1	-0,006
83,651	1	-0,007
94,133	1	-0,002
104,578	1	-0,001
115,029	0,5	0
125,481	1	-0,002
135,95	1	-0,003
146,396	1	-0,008
156,847	1	-0,01
167,292	1	-0,016
177,744	1	-0,038
188,189	1	-0,04
198,64	1	-0,066
209,092	0	-0,091
219,537	0	-0,235
229,995	-0,5	-0,396
240,446	-1,5	-0,904
250,898	-2	-1,19
261,343	-3,5	-1,557
271,794	-4,5	-1,913
282,252	-5	-1,948
292,715	-5,5	-2,096
303,173	-6	-2,13
313,636	-6	-2,14
324,093	-8,5	-2,589
334,545	-11	-2,952
344,996	-12,5	-3,404
355,447	-12,5	-3,499
365,917	-12	-3,498
376,38	-12	-3,496
386,826	-12	-3,492
397,283	-12	-3,493
407,753	-12	-3,493
418,216	-12	-3,493
428,691	-12	-3,492
439,155	-12	-3,492
449,612	-12	-3,485
460,064	-11,5	-3,477
470,533	-11,5	-3,462
480,996	-10,5	-3,438
491,448	-10,5	-3,395
501,923	-9	-3,274
512,387	-8	-3,11
522,844	-7	-2,84
533,319	-7	-2,864
543,783	-7,5	-2,912
554,24	-7	-2,845
564,704	-5,5	-2,506
575,161	-4,5	-2,276
585,618	-3,5	-2,023
596,082	-3	-1,816
606,557	-3	-1,686
617,021	-1,5	-1,154
627,472	0	-0,611
637,935	0,5	-0,285
648,411	1,5	-0,032
658,88	1,5	-0,001
669,332	1,5	-0,001
679,783	1	-0,003
690,264	1,5	-0,004
700,728	1,5	-0,006
711,197	1,5	-0,007
721,679	1	-0,015
732,16	0,5	-0,116
742,635	0,5	-0,157
753,111	1	-0,066
763,556	0,5	-0,094
774,014	0	-0,138
784,465	0,5	-0,131
794,928	0	-0,154
805,422	0,5	-0,095
815,879	0	-0,173
826,349	0,5	-0,152
836,83	0,5	-0,136
847,299	0	-0,178
857,781	1	-0,055
868,274	1	-0,034
878,75	1,5	-0,01
889,249	1	-0,002
899,736	1,5	-0,001
910,218	1,5	-0,005
920,723	1,5	-0,097
931,223	1	-0,272
941,716	1	-0,092
952,179	1,5	-0,001
962,637	1,5	-0,001
973,112	1,5	-0,001
983,576	1	-0,148
994,051	1	-0,319
1004,532	1	-0,331
1015,002	1	-0,304
1025,477	1,5	-0,212
1035,941	1	-0,185
1046,404	1	-0,366
1056,879	1	-0,336
1067,349	0,5	-0,436
1077,818	0	-0,552
1088,3	0	-0,718
1098,757	0	-0,688
1109,226	0	-0,629
1119,69	0	-0,528
1130,171	0	-0,61
1140,647	0	-0,574
1151,122	0	-0,571
1161,591	0	-0,691
1172,055	0	-0,634
1182,524	0	-0,665
1192,994	0,5	-0,476
1203,463	0,5	-0,486
1213,944	0,5	-0,454
1224,408	0,5	-0,348
1234,889	1	-0,386
1245,359	1,5	-0,066
1255,828	1,5	-0,001
1266,297	1,5	-0,002
1276,761	1,5	-0,005
1287,212	1,5	-0,008
1297,688	1,5	-0,008
1308,157	1,5	-0,006
1318,62	1,5	-0,005
1329,09	1,5	-0,003
1339,565	1,5	-0,016
1350,035	0,5	-0,428
1360,516	0	-0,737
1370,979	-1	-1,046
1381,461	-1,5	-1,355
1391,948	-1,5	-1,487
1402,406	-1,5	-1,452
1412,863	-1	-1,056
1423,326	-1	-1,132
1433,808	-1	-0,987
1444,271	0	-0,686
1454,723	0	-0,573
1465,186	1,5	-0,11
1475,649	1,5	-0,002
1486,113	1,5	-0,017
1496,576	0,5	-0,074
1507,046	0	-0,266
1517,521	0	-0,255
1527,99	0	-0,196
1538,46	0	-0,222
1548,935	0	-0,268
1559,411	0	-0,609
1569,88	0	-0,641
1580,356	0	-0,55
1590,819	0	-0,454
1601,282	0	-0,452
1611,752	0	-0,341
1622,209	0,5	-0,09
1632,678	1	-0,041
1643,154	1	-0,01
1653,641	1,5	-0,002
1664,123	1,5	-0,262
1674,592	0	-0,699
1685,075	-1,5	-1,331
1695,543	-1,5	-1,548
1706,018	-3	-2,099
1716,488	-4,5	-2,661
1726,945	-4,5	-2,516
1737,421	-5,5	-2,916
1747,884	-6,5	-3,061
1758,353	-4,5	-2,629
1768,829	-5,5	-2,833
1779,298	-7	-3,254
1789,774	-9	-3,435
1800,249	-9,5	-3,48
1810,73	-9,5	-3,485
1821,2	-9,5	-3,491
1831,669	-9,5	-3,494
1842,145	-10	-3,498
1852,614	-10	-3,486
1863,077	-8,5	-2,994
1873,553	-5,5	-2,444
1884,04	-3	-1,69
1894,51	-1	-1,149
1904,979	-0,5	-0,874
1915,454	0	-0,579
1925,918	0	-0,456
1936,387	0	-0,251
1946,845	0,5	-0,114
1957,326	1	-0,042
1967,789	1,5	-0,02
1978,265	1,5	-0,005
1988,74	1,5	-0,001
1999,21	1,5	-0,055
2009,679	0,5	-0,507
2020,16	0	-0,758
2030,624	-1	-1,073
2041,099	-1,5	-1,405
2051,587	-2	-1,573
2062,05	-2,5	-1,841
2072,519	-2	-1,882
2082,983	-3	-2,101
2093,458	-3	-2,358
2103,922	-4,5	-2,62
2114,391	-5	-2,92
2124,854	-5,5	-3,049
2135,318	-6,5	-3,262
2145,781	-8,5	-3,443
2156,245	-9	-3,483
2166,714	-9	-3,486
2177,177	-9	-3,493
2187,635	-9	-3,489
2198,104	-9	-3,487
2208,574	-8,5	-3,49
2219,037	-9	-3,495
2229,518	-8,5	-3,497
2239,982	-9	-3,497
2250,445	-9	-3,495
2260,921	-9	-3,497
2271,378	-9	-3,497
2281,835	-8,5	-3,497
2292,293	-9	-3,497
2302,756	-9	-3,496
2313,226	-9	-3,496
2323,695	-9	-3,496
2334,164	-8,5	-3,499
2344,622	-8,5	-3,171
2355,079	-6	-2,72
2365,549	-4	-2,386
2376,024	-2,5	-1,9
2386,487	-1	-1,533
2396,945	-0,5	-1,18
2407,414	0	-0,776
2417,872	0	-0,498
2428,323	0	-0,477
2438,786	0,5	-0,178
2449,25	0,5	-0,074
2459,725	1,5	-0,015
2470,195	1,5	-0,003
2480,67	1,5	-0,121
2491,133	1,5	-0,396
2501,609	-0,5	-0,841
2512,084	-1	-1,337
2522,542	-1,5	-1,649
2533,005	-2	-2,043
2543,486	-3	-2,442
2553,95	-3	-2,634
2564,419	-4	-2,836
2574,883	-4	-2,857
2585,352	-4,5	-3,01
2595,815	-5	-3,059
2606,285	-5,5	-3,276
2616,748	-6,5	-3,426
2627,206	-7	-3,482
2637,675	-7,5	-3,496
2648,138	-7,5	-3,496
2658,614	-5	-2,879
2669,089	-2,5	-2,28
2679,559	-1,5	-1,696
2690,016	-0,5	-1,163
2700,485	0	-0,643
2710,949	1	-0,14
2721,418	1	-0,058
2731,894	1,5	-0,017
2742,357	1,5	-0,006
2752,809	1,5	-0,002
2763,284	1	-0,027
2773,741	1,5	-0,196
2784,217	0	-0,666
2794,68	-0,5	-1,177
2805,138	-1,5	-1,566
2815,595	-1,5	-1,9
2826,064	-2	-2,281
2836,516	-2,5	-2,397
2846,991	-3	-2,841
2857,449	-4	-3,157
2867,912	-5,5	-3,384
2878,363	-5,5	-3,44
2888,839	-5,5	-3,433
2899,332	-6	-3,443
2909,796	-5,5	-3,425
2920,265	-5,5	-3,439
2930,723	-5,5	-3,454
2941,198	-5,5	-3,469
2951,673	-5,5	-3,479
2962,137	-5,5	-3,492
2972,594	-5,5	-3,495
2983,069	-5,5	-3,496
2993,551	-5,5	-3,498
3004,026	-5,5	-3,499
3014,484	-5,5	-3,499
3024,953	-5,5	-3,498
3035,419	-5,5	-3,497
3045,886	-5	-3,255
3056,361	-4,5	-3,091
3066,819	-5	-3,449
3077,276	-5	-3,5
3087,751	-5	-3,499
3098,203	-5	-3,496
3108,678	-5	-3,494
3119,148	-5	-3,486
3129,617	-4,5	-3,47
3135,131	1,5	-0,001