File: ensaios_Ciclicos/_60perc/_3gap/entrada/_4.txt
Time (s)	Load (N)	Displacement (mm)
36,123	-2,5	-0,921
45,087	-12	-3,321
54,062	-9	-2,441
63,033	0	-0,243
72,013	0,5	-0,232
80,983	-7	-2,412
89,94	-13,5	-3,497
98,916	-6	-1,946
107,885	0,5	-0,044
116,843	0	-0,467
125,812	-8	-2,84
134,77	-13	-3,5
143,751	-2	-0,983
152,715	1	-0,002
161,691	-3,5	-1,722
170,654	-12,5	-3,469
179,635	-7,5	-2,34
260,84	1	-0,002
269,822	-5	-2,23
278,797	-12	-3,498
287,773	-2	-1,262
296,754	1	-0,002
305,742	-3	-1,75
314,735	-12	-3,488
323,729	-4,5	-1,855
332,722	0,5	-0,026
341,704	-2,5	-1,438
350,691	-11,5	-3,464
359,673	-7	-2,399
368,672	1	-0,03
377,654	-1,5	-0,98
386,641	-9,5	-3,266
395,629	-9	-2,747
476,924	1	-0,008
485,912	-3	-1,766
494,899	-11,5	-3,495
503,899	-2	-1,29
512,898	1	-0,001
521,891	-6,5	-2,852
530,873	-10	-2,98
539,854	0	-0,183
548,872	-0,5	-0,639
557,865	-7	-2,95
566,853	-11,5	-3,461
575,84	-0,5	-0,612
584,846	1	-0,146
593,839	-5,5	-2,639
602,833	-11,5	-3,499
611,82	-1,5	-1,249
620,808	1	-0,001
629,807	-4,5	-2,284
638,801	-11,5	-3,499
647,788	-1,5	-1,085
765,286	-11	-3,499
774,279	-1	-0,844
783,267	0,5	-0,13
792,26	-6,5	-2,935
801,224	-10,5	-3,11
810,223	0	-0,486
819,217	0,5	-0,309
828,21	-6,5	-3,041
837,215	-8	-2,755
846,227	0	-0,102
855,226	-1,5	-1,101
864,202	-10	-3,43
873,195	-4,5	-2,079
882,189	0,5	-0,009
891,188	-3,5	-2,026
900,182	-10,5	-3,499
909,175	-1,5	-1,195
918,145	1	-0,001
927,132	-5,5	-2,74
936,132	-9	-2,985
945,125	0	-0,16
954,113	-1,5	-1,086
963,106	-10,5	-3,473
972,1	-3	-1,794
981,087	1	-0,003
990,081	-4	-2,33
999,074	-10,5	-3,482
1008,056	-0,5	-0,68
1125,493	0	-0,159
1134,468	-0,5	-0,766
1143,444	-8,5	-3,365
1152,437	-5,5	-2,39
1161,419	0,5	-0,06
1170,412	-1,5	-1,194
1179,388	-10	-3,462
1188,375	-3	-1,894
1197,369	1	-0,006
1206,35	-2,5	-1,799
1215,338	-10	-3,496
1224,313	-1	-1,202
1233,307	1	-0,001
1242,288	-5	-2,579
1251,27	-10	-3,224
1260,245	0	-0,555
1269,245	1	-0,232
1278,232	-5,5	-2,872
1287,22	-9,5	-3,035
1296,201	0	-0,276
1305,183	0	-0,776
1314,17	-8,5	-3,397
1323,152	-5	-2,323
1332,145	0,5	-0,036
1341,145	-1,5	-1,204
1350,12	-10	-3,467
1359,096	-4,5	-2,172
1368,083	1	-0,017
1377,059	-2	-1,462
1386,059	-10	-3,494
1395,04	-2	-1,484
1404,027	1,5	-0,002
1413,015	-4	-2,414
1422,008	-10	-3,413
1431,002	0	-0,488
1439,977	0,5	-0,403
1448,965	-7	-3,158
1457,94	-6	-2,618
1466,934	1	-0,05
1475,915	-1,5	-1,412
1484,896	-10	-3,488
1493,884	-1,5	-1,468
1502,859	1	-0,002
1511,841	-4	-2,404
1520,834	-10	-3,419
1529,834	0	-0,474
1538,815	0	-0,433
1547,809	-7,5	-3,185
1556,79	-6,5	-2,731
1565,784	1	-0,055
1574,765	-1,5	-1,225
1583,735	-9,5	-3,46
1592,716	-3,5	-2,123
1601,71	1,5	-0,01
1610,697	-2,5	-1,746
1619,691	-9,5	-3,497
1628,678	-1,5	-1,276
1637,666	1	-0,002
1646,659	-3	-2,263
1655,653	-9,5	-3,5
1664,634	-0,5	-0,778
1673,616	1,5	0
1682,609	-5,5	-2,997
1691,591	-8	-2,854
1700,578	0	-0,18
1709,56	0	-0,646
1718,541	-8,5	-3,395
1727,517	-5,5	-2,583
1736,492	0,5	-0,089
1745,48	-1	-0,963
1754,455	-9	-3,449
1763,449	-3	-1,938
1772,43	1	-0,01
1781,412	-2	-1,788
1790,387	-10	-3,496
1799,374	-2	-1,448
1808,368	1	-0,003
1817,355	-3	-2,146
1826,343	-9,5	-3,499
1835,336	-0,5	-0,978
1844,318	1	-0,108
1853,299	-5,5	-2,951
1862,287	-8,5	-2,952
1871,286	0	-0,182
1880,28	-0,5	-0,759
1889,261	-8	-3,406
1898,243	-5,5	-2,364
1907,224	0,5	-0,054
1916,206	-1,5	-1,192
1925,181	-9	-3,456
1934,169	-3,5	-2,123
1943,15	1	-0,02
1952,138	-1,5	-1,57
1961,119	-9,5	-3,492
1970,113	-1	-1,27
1979,1	1	-0,001
1988,088	-4	-2,474
1997,069	-9,5	-3,499
2006,039	-0,5	-0,752
2015,002	0,5	-0,269
2023,978	-7	-3,157
2032,965	-6	-2,702
2041,953	0,5	-0,082
2050,94	-0,5	-0,738
2059,916	-7	-3,166
2068,909	-6	-2,628
2077,903	0	-0,159
2086,878	-0,5	-0,699
2095,854	-8	-3,364
2104,847	-4	-2,228
2113,841	1	-0,023
2122,822	-1,5	-1,424
2131,804	-9,5	-3,489
2140,785	-2	-1,592
2149,766	1	-0,003
2158,754	-3	-2,291
2167,736	-9,5	-3,466
2176,729	0	-0,473
2185,71	0	-0,64
2194,686	-6,5	-3,294
2203,673	-5,5	-2,498
2212,655	1	-0,037
2221,642	-1	-1,131
2230,63	-9	-3,48
2239,617	-2	-1,653
2248,587	1	-0,003
2257,568	-2,5	-1,966
2266,55	-9	-3,498
2275,519	-1,5	-1,345
2284,495	1	-0,002
2293,476	-3,5	-2,4
2302,452	-9,5	-3,499
2311,433	0	-0,578
2320,409	0,5	-0,378
2329,396	-6	-3,216
2338,39	-7	-2,825
2347,365	0	-0,18
2356,341	-0,5	-0,772
2365,31	-7	-3,344
2374,298	-5	-2,498
2383,273	0,5	-0,065
2392,261	-1	-1,105
2401,242	-8,5	-3,463
2410,236	-3	-2,128
2419,223	1	-0,027
2428,193	-1,5	-1,312
2437,162	-8,5	-3,473
2446,168	-2,5	-1,818
2455,155	1	-0,004
2464,137	-2	-1,884
2473,124	-8,5	-3,496
2482,093	-1	-1,36
2491,075	1	-0,002
2500,056	-3	-2,223
2509,032	-8,5	-3,498
2518,019	-0,5	-1,054
2526,995	1	-0,001
2535,964	-3,5	-2,506
2544,946	-8	-3,5
2553,921	0	-0,784
2562,897	1	-0,184
2571,89	-5	-2,982
2580,878	-7	-3,005
2589,865	0	-0,315
2598,847	0,5	-0,362
2643,946	-7,5	-3,492
2652,94	-1	-1,519
2661,921	1	-0,002
2670,903	-2,5	-2,085
2679,896	-7,5	-3,499
2688,884	-0,5	-0,965
2697,853	1	0
2706,835	-4	-2,734
2715,816	-7,5	-3,206
2724,798	0	-0,538
2733,785	0,5	-0,481
2742,767	-5	-3,211
2751,748	-4,5	-2,533
2760,742	1	-0,036
2769,717	-1	-1,11
2778,711	-7,5	-3,486
2787,686	-2	-1,989
2796,68	1	-0,012
2805,661	-1,5	-1,57
2814,643	-7,5	-3,488
2859,76	0	-0,338
2868,741	0	-0,606
2877,711	-5	-3,257
2886,686	-5,5	-2,899
2895,662	0	-0,236
2904,637	0	-0,65
2913,625	-6	-3,377
2922,6	-3,5	-2,424
2931,588	1	-0,033
2940,575	-1	-1,472
2949,557	-7	-3,487
2958,544	-1	-1,535
2967,526	1	-0,002
2976,507	-3	-2,494
2985,495	-7	-3,225
2994,488	0	-0,434
3003,464	0	-0,698
3012,463	-6	-3,438
3021,439	-2	-2,029
3030,426	1	-0,006
3039,402	-1,5	-1,824
3048,371	-7	-3,496
3057,365	-0,5	-1,268
3066,346	1	-0,001
3075,328	-2,5	-2,42
3084,309	-7	-3,5
3093,303	0	-0,812
3102,284	1	-0,273
3111,272	-4,5	-3,155
3120,259	-4	-2,648
3129,246	0,5	-0,071
3138,234	-1	-1,38
3147,203	-7	-3,486
3156,191	-1	-1,654
3163,169	1	-0,001